LabVIEW Measurement	
Writer_Version	2
Reader_Version	2
Separator	Tab
Decimal_Separator	.
Multi_Headings	Yes
X_Columns	One
Time_Pref	Relative
Operator	BME 302
Description	Time Domain Data
Date	1903/12/31
Time	19:00:00
***End_of_Header***	
	
Channels	1	
Samples	7500	
Date	1903/12/31	
Time	19:00:00	
X_Dimension	Time	
X0	0.0000000000000000E+0	
Delta_X	2.000000E-5	
***End_of_Header***		
X_Value	Untitled	Comment
0.000000	-0.004615	Tare Values:0.000000, 0.000000, 0.000000, 0.000000\0D\0A
2.000000E-5	-0.004615
4.000000E-5	-0.003021
6.000000E-5	-0.003659
8.000000E-5	-0.003340
0.000100	-0.003021
0.000120	-0.003340
0.000140	-0.003021
0.000160	-0.003021
0.000180	-0.002384
0.000200	-0.003340
0.000220	-0.003977
0.000240	-0.003659
0.000260	-0.003977
0.000280	-0.003021
0.000300	-0.003977
0.000320	-0.003977
0.000340	-0.004296
0.000360	-0.004615
0.000380	-0.003021
0.000400	-0.003021
0.000420	-0.003021
0.000440	-0.002384
0.000460	-0.002703
0.000480	-0.002065
0.000500	-0.003659
0.000520	-0.002703
0.000540	-0.003021
0.000560	-0.003340
0.000580	-0.003021
0.000600	-0.003977
0.000620	-0.004615
0.000640	-0.003977
0.000660	-0.003977
0.000680	-0.003659
0.000700	-0.004296
0.000720	-0.004933
0.000740	-0.003340
0.000760	-0.004296
0.000780	-0.003659
0.000800	-0.003021
0.000820	-0.003977
0.000840	-0.003021
0.000860	-0.003659
0.000880	-0.002703
0.000900	-0.003659
0.000920	-0.003977
0.000940	-0.003021
0.000960	-0.003977
0.000980	-0.004296
0.001000	-0.003021
0.001020	-0.003340
0.001040	-0.003340
0.001060	-0.003340
0.001080	-0.003021
0.001100	-0.002703
0.001120	-0.003021
0.001140	-0.002065
0.001160	-0.003340
0.001180	-0.003977
0.001200	-0.003340
0.001220	-0.003340
0.001240	-0.003659
0.001260	-0.003977
0.001280	-0.003659
0.001300	-0.003659
0.001320	-0.004615
0.001340	-0.003659
0.001360	-0.003021
0.001380	-0.003659
0.001400	-0.002703
0.001420	-0.002703
0.001440	-0.003659
0.001460	-0.002703
0.001480	-0.001747
0.001500	-0.002384
0.001520	-0.003659
0.001540	-0.003340
0.001560	-0.003340
0.001580	-0.004615
0.001600	-0.003659
0.001620	-0.003659
0.001640	-0.004296
0.001660	-0.005571
0.001680	-0.004615
0.001700	-0.002703
0.001720	-0.003659
0.001740	-0.003021
0.001760	-0.003021
0.001780	-0.003659
0.001800	-0.003021
0.001820	-0.002703
0.001840	-0.003021
0.001860	-0.003340
0.001880	-0.003977
0.001900	-0.002703
0.001920	-0.004296
0.001940	-0.003977
0.001960	-0.003340
0.001980	-0.004296
0.002000	-0.003659
0.002020	-0.003659
0.002040	-0.004296
0.002060	-0.003659
0.002080	-0.003340
0.002100	-0.002703
0.002120	-0.003021
0.002140	-0.003659
0.002160	-0.003659
0.002180	-0.002703
0.002200	-0.002703
0.002220	-0.003977
0.002240	-0.003977
0.002260	-0.004615
0.002280	-0.005252
0.002300	-0.003977
0.002320	-0.004296
0.002340	-0.003659
0.002360	-0.003977
0.002380	-0.003977
0.002400	-0.003977
0.002420	-0.003021
0.002440	-0.002384
0.002460	-0.003021
0.002480	-0.003340
0.002500	-0.003021
0.002520	-0.003977
0.002540	-0.004933
0.002560	-0.003659
0.002580	-0.004296
0.002600	-0.004296
0.002620	-0.004615
0.002640	-0.004615
0.002660	-0.003977
0.002680	-0.004296
0.002700	-0.003340
0.002720	-0.002703
0.002740	-0.003659
0.002760	-0.003340
0.002780	-0.003659
0.002800	-0.002065
0.002820	-0.003340
0.002840	-0.003340
0.002860	-0.003659
0.002880	-0.003977
0.002900	-0.003659
0.002920	-0.003340
0.002940	-0.003977
0.002960	-0.003977
0.002980	-0.003340
0.003000	-0.003977
0.003020	-0.003340
0.003040	-0.003021
0.003060	-0.001747
0.003080	-0.003340
0.003100	-0.003659
0.003120	-0.002703
0.003140	-0.003340
0.003160	-0.003021
0.003180	-0.003977
0.003200	-0.003977
0.003220	-0.003977
0.003240	-0.004933
0.003260	-0.003340
0.003280	-0.003659
0.003300	-0.002703
0.003320	-0.003977
0.003340	-0.003977
0.003360	-0.002703
0.003380	-0.003659
0.003400	-0.002065
0.003420	-0.002703
0.003440	-0.003021
0.003460	-0.003021
0.003480	-0.003977
0.003500	-0.003977
0.003520	-0.003659
0.003540	-0.004615
0.003560	-0.003659
0.003580	-0.004933
0.003600	-0.004296
0.003620	-0.003977
0.003640	-0.003977
0.003660	-0.003340
0.003680	-0.002703
0.003700	-0.003977
0.003720	-0.003021
0.003740	-0.003340
0.003760	-0.001747
0.003780	-0.003659
0.003800	-0.003340
0.003820	-0.003340
0.003840	-0.003659
0.003860	-0.003977
0.003880	-0.003977
0.003900	-0.004296
0.003920	-0.004296
0.003940	-0.004296
0.003960	-0.003340
0.003980	-0.002703
0.004000	-0.003659
0.004020	-0.001428
0.004040	-0.002384
0.004060	-0.003659
0.004080	-0.003659
0.004100	-0.003340
0.004120	-0.003340
0.004140	-0.003659
0.004160	-0.003340
0.004180	-0.004296
0.004200	-0.004933
0.004220	-0.003021
0.004240	-0.003977
0.004260	-0.003977
0.004280	-0.003340
0.004300	-0.003659
0.004320	-0.002384
0.004340	-0.003659
0.004360	-0.003021
0.004380	-0.003021
0.004400	-0.004296
0.004420	-0.003659
0.004440	-0.003659
0.004460	-0.004296
0.004480	-0.004296
0.004500	-0.004296
0.004520	-0.003340
0.004540	-0.005252
0.004560	-0.004615
0.004580	-0.003021
0.004600	-0.003977
0.004620	-0.003340
0.004640	-0.003021
0.004660	-0.003659
0.004680	-0.003021
0.004700	-0.003659
0.004720	-0.002384
0.004740	-0.004296
0.004760	-0.004296
0.004780	-0.003659
0.004800	-0.004296
0.004820	-0.004615
0.004840	-0.003021
0.004860	-0.003659
0.004880	-0.004296
0.004900	-0.003021
0.004920	-0.003340
0.004940	-0.003021
0.004960	-0.003340
0.004980	-0.001109
0.005000	-0.002703
0.005020	-0.003021
0.005040	-0.003021
0.005060	-0.003340
0.005080	-0.003340
0.005100	-0.003659
0.005120	-0.004296
0.005140	-0.004296
0.005160	-0.004615
0.005180	-0.003021
0.005200	-0.003659
0.005220	-0.003977
0.005240	-0.003021
0.005260	-0.003340
0.005280	-0.003340
0.005300	-0.003340
0.005320	-0.002703
0.005340	-0.002703
0.005360	-0.004296
0.005380	-0.003340
0.005400	-0.003977
0.005420	-0.004933
0.005440	-0.003659
0.005460	-0.003977
0.005480	-0.003977
0.005500	-0.004615
0.005520	-0.003977
0.005540	-0.003021
0.005560	-0.003977
0.005580	-0.003340
0.005600	-0.002703
0.005620	-0.003977
0.005640	-0.003340
0.005660	-0.003021
0.005680	-0.003340
0.005700	-0.003659
0.005720	-0.003977
0.005740	-0.003977
0.005760	-0.004615
0.005780	-0.004615
0.005800	-0.002703
0.005820	-0.003659
0.005840	-0.003977
0.005860	-0.002703
0.005880	-0.004296
0.005900	-0.002384
0.005920	-0.002384
0.005940	-0.002065
0.005960	-0.003021
0.005980	-0.003659
0.006000	-0.002703
0.006020	-0.003340
0.006040	-0.003659
0.006060	-0.003977
0.006080	-0.003340
0.006100	-0.004296
0.006120	-0.004296
0.006140	-0.002703
0.006160	-0.004296
0.006180	-0.003659
0.006200	-0.002384
0.006220	-0.002703
0.006240	-0.003340
0.006260	-0.003021
0.006280	-0.002703
0.006300	-0.002384
0.006320	-0.003977
0.006340	-0.003659
0.006360	-0.004296
0.006380	-0.005252
0.006400	-0.003340
0.006420	-0.003659
0.006440	-0.003659
0.006460	-0.003659
0.006480	-0.003659
0.006500	-0.002703
0.006520	-0.003659
0.006540	-0.003021
0.006560	-0.003340
0.006580	-0.003340
0.006600	-0.002384
0.006620	-0.003659
0.006640	-0.003977
0.006660	-0.003977
0.006680	-0.003977
0.006700	-0.003977
0.006720	-0.004615
0.006740	-0.003659
0.006760	-0.003659
0.006780	-0.003977
0.006800	-0.003340
0.006820	-0.003021
0.006840	-0.003659
0.006860	-0.003340
0.006880	-0.003659
0.006900	-0.002065
0.006920	-0.003340
0.006940	-0.003659
0.006960	-0.003340
0.006980	-0.003977
0.007000	-0.003659
0.007020	-0.003340
0.007040	-0.003977
0.007060	-0.003977
0.007080	-0.003977
0.007100	-0.003977
0.007120	-0.004296
0.007140	-0.002703
0.007160	-0.002703
0.007180	-0.003340
0.007200	-0.003340
0.007220	-0.003659
0.007240	-0.003977
0.007260	-0.002384
0.007280	-0.003659
0.007300	-0.003021
0.007320	-0.004615
0.007340	-0.004615
0.007360	-0.003021
0.007380	-0.003977
0.007400	-0.003977
0.007420	-0.004296
0.007440	-0.003977
0.007460	-0.002384
0.007480	-0.003340
0.007500	-0.002703
0.007520	-0.003340
0.007540	-0.003340
0.007560	-0.002703
0.007580	-0.003340
0.007600	-0.003659
0.007620	-0.003340
0.007640	-0.004296
0.007660	-0.003659
0.007680	-0.004615
0.007700	-0.004615
0.007720	-0.003977
0.007740	-0.003977
0.007760	-0.003977
0.007780	-0.003021
0.007800	-0.003977
0.007820	-0.002703
0.007840	-0.002703
0.007860	-0.002065
0.007880	-0.003340
0.007900	-0.003977
0.007920	-0.003340
0.007940	-0.003977
0.007960	-0.003659
0.007980	-0.003659
0.008000	-0.004296
0.008020	-0.003977
0.008040	-0.004615
0.008060	-0.003340
0.008080	-0.003340
0.008100	-0.003659
0.008120	-0.001747
0.008140	-0.003021
0.008160	-0.003659
0.008180	-0.003659
0.008200	-0.002703
0.008220	-0.002384
0.008240	-0.004296
0.008260	-0.003340
0.008280	-0.003977
0.008300	-0.004933
0.008320	-0.003340
0.008340	-0.004296
0.008360	-0.003340
0.008380	-0.004296
0.008400	-0.004296
0.008420	-0.002703
0.008440	-0.003340
0.008460	-0.002384
0.008480	-0.003021
0.008500	-0.003659
0.008520	-0.003340
0.008540	-0.003977
0.008560	-0.003659
0.008580	-0.003340
0.008600	-0.003977
0.008620	-0.003659
0.008640	-0.004933
0.008660	-0.004615
0.008680	-0.002703
0.008700	-0.004296
0.008720	-0.003659
0.008740	-0.003340
0.008760	-0.003659
0.008780	-0.003021
0.008800	-0.003659
0.008820	-0.001109
0.008840	-0.003659
0.008860	-0.003977
0.008880	-0.003659
0.008900	-0.004615
0.008920	-0.003977
0.008940	-0.003021
0.008960	-0.003659
0.008980	-0.003659
0.009000	-0.004296
0.009020	-0.003021
0.009040	-0.003659
0.009060	-0.003340
0.009080	-0.002065
0.009100	-0.002384
0.009120	-0.003977
0.009140	-0.003659
0.009160	-0.002703
0.009180	-0.003340
0.009200	-0.003977
0.009220	-0.002703
0.009240	-0.003977
0.009260	-0.005252
0.009280	-0.003340
0.009300	-0.004615
0.009320	-0.003659
0.009340	-0.004296
0.009360	-0.003340
0.009380	-0.003340
0.009400	-0.003340
0.009420	-0.002384
0.009440	-0.002703
0.009460	-0.003977
0.009480	-0.003021
0.009500	-0.003659
0.009520	-0.003659
0.009540	-0.003977
0.009560	-0.003977
0.009580	-0.003659
0.009600	-0.005252
0.009620	-0.003977
0.009640	-0.002703
0.009660	-0.003977
0.009680	-0.003659
0.009700	-0.002384
0.009720	-0.003659
0.009740	-0.002703
0.009760	-0.002703
0.009780	-0.001747
0.009800	-0.003659
0.009820	-0.003659
0.009840	-0.002703
0.009860	-0.004296
0.009880	-0.004296
0.009900	-0.002703
0.009920	-0.003659
0.009940	-0.003659
0.009960	-0.003977
0.009980	-0.002703
0.010000	-0.003977
0.010020	-0.003340
0.010040	-0.002384
0.010060	-0.002703
0.010080	-0.002384
0.010100	-0.002065
0.010120	-0.002384
0.010140	-0.002703
0.010160	-0.004296
0.010180	-0.003021
0.010200	-0.003977
0.010220	-0.004615
0.010240	-0.002703
0.010260	-0.003659
0.010280	-0.002384
0.010300	-0.003021
0.010320	-0.003977
0.010340	-0.003021
0.010360	-0.003021
0.010380	-0.002703
0.010400	-0.002703
0.010420	-0.003340
0.010440	-0.002384
0.010460	-0.003340
0.010480	-0.003021
0.010500	-0.002703
0.010520	-0.004296
0.010540	-0.003340
0.010560	-0.004933
0.010580	-0.003977
0.010600	-0.003659
0.010620	-0.003659
0.010640	-0.003021
0.010660	-0.003340
0.010680	-0.003659
0.010700	-0.002703
0.010720	-0.003021
0.010740	-0.001109
0.010760	-0.003340
0.010780	-0.002703
0.010800	-0.003659
0.010820	-0.003340
0.010840	-0.003659
0.010860	-0.003977
0.010880	-0.003977
0.010900	-0.003659
0.010920	-0.003340
0.010940	-0.002703
0.010960	-0.002384
0.010980	-0.002384
0.011000	-0.001428
0.011020	-0.003659
0.011040	-0.003340
0.011060	-0.003340
0.011080	-0.002703
0.011100	-0.002703
0.011120	-0.003340
0.011140	-0.002703
0.011160	-0.003659
0.011180	-0.005252
0.011200	-0.003340
0.011220	-0.003977
0.011240	-0.003659
0.011260	-0.003021
0.011280	-0.003340
0.011300	-0.002703
0.011320	-0.003021
0.011340	-0.002703
0.011360	-0.002703
0.011380	-0.004296
0.011400	-0.002384
0.011420	-0.003340
0.011440	-0.004615
0.011460	-0.003021
0.011480	-0.004615
0.011500	-0.003340
0.011520	-0.004296
0.011540	-0.004296
0.011560	-0.003340
0.011580	-0.003340
0.011600	-0.003021
0.011620	-0.003021
0.011640	-0.004296
0.011660	-0.002384
0.011680	-0.003021
0.011700	-0.001747
0.011720	-0.002703
0.011740	-0.003659
0.011760	-0.003659
0.011780	-0.004296
0.011800	-0.004296
0.011820	-0.003021
0.011840	-0.003659
0.011860	-0.003340
0.011880	-0.003977
0.011900	-0.003659
0.011920	-0.003021
0.011940	-0.003021
0.011960	-0.001428
0.011980	-0.003021
0.012000	-0.003659
0.012020	-0.003340
0.012040	-0.003021
0.012060	-0.003021
0.012080	-0.003021
0.012100	-0.002703
0.012120	-0.003021
0.012140	-0.004615
0.012160	-0.003340
0.012180	-0.003021
0.012200	-0.003659
0.012220	-0.003340
0.012240	-0.003021
0.012260	-0.002703
0.012280	-0.003659
0.012300	-0.002703
0.012320	-0.002065
0.012340	-0.003659
0.012360	-0.003659
0.012380	-0.003659
0.012400	-0.004933
0.012420	-0.003659
0.012440	-0.003659
0.012460	-0.003977
0.012480	-0.004933
0.012500	-0.004615
0.012520	-0.002065
0.012540	-0.003340
0.012560	-0.002703
0.012580	-0.003340
0.012600	-0.003340
0.012620	-0.003340
0.012640	-0.003021
0.012660	-0.002703
0.012680	-0.003340
0.012700	-0.003977
0.012720	-0.003659
0.012740	-0.004615
0.012760	-0.003977
0.012780	-0.003659
0.012800	-0.003340
0.012820	-0.003659
0.012840	-0.003340
0.012860	-0.002703
0.012880	-0.003340
0.012900	-0.002703
0.012920	-0.001747
0.012940	-0.002384
0.012960	-0.002703
0.012980	-0.003340
0.013000	-0.002703
0.013020	-0.002384
0.013040	-0.003659
0.013060	-0.003977
0.013080	-0.004296
0.013100	-0.004615
0.013120	-0.003021
0.013140	-0.003659
0.013160	-0.003340
0.013180	-0.003340
0.013200	-0.002065
0.013220	-0.003021
0.013240	-0.003659
0.013260	-0.003021
0.013280	-0.002065
0.013300	-0.003977
0.013320	-0.002703
0.013340	-0.003340
0.013360	-0.004615
0.013380	-0.003340
0.013400	-0.003977
0.013420	-0.004296
0.013440	-0.004933
0.013460	-0.004296
0.013480	-0.002384
0.013500	-0.003659
0.013520	-0.002703
0.013540	-0.002384
0.013560	-0.003340
0.013580	-0.002384
0.013600	-0.003340
0.013620	-0.003021
0.013640	-0.003977
0.013660	-0.003659
0.013680	-0.003659
0.013700	-0.004615
0.013720	-0.003659
0.013740	-0.002703
0.013760	-0.004296
0.013780	-0.003021
0.013800	-0.003021
0.013820	-0.003021
0.013840	-0.003021
0.013860	-0.002703
0.013880	-0.001428
0.013900	-0.002703
0.013920	-0.003021
0.013940	-0.003021
0.013960	-0.003021
0.013980	-0.003340
0.014000	-0.003021
0.014020	-0.003340
0.014040	-0.004296
0.014060	-0.004615
0.014080	-0.003340
0.014100	-0.003340
0.014120	-0.003340
0.014140	-0.002703
0.014160	-0.003021
0.014180	-0.002703
0.014200	-0.003340
0.014220	-0.002703
0.014240	-0.002703
0.014260	-0.003340
0.014280	-0.003659
0.014300	-0.003977
0.014320	-0.005252
0.014340	-0.003021
0.014360	-0.003659
0.014380	-0.003340
0.014400	-0.004296
0.014420	-0.004296
0.014440	-0.003021
0.014460	-0.003659
0.014480	-0.002065
0.014500	-0.002703
0.014520	-0.004296
0.014540	-0.002384
0.014560	-0.003659
0.014580	-0.003021
0.014600	-0.003340
0.014620	-0.003340
0.014640	-0.003977
0.014660	-0.004615
0.014680	-0.004615
0.014700	-0.002703
0.014720	-0.004296
0.014740	-0.003021
0.014760	-0.002703
0.014780	-0.002703
0.014800	-0.002065
0.014820	-0.003340
0.014840	-0.001428
0.014860	-0.003340
0.014880	-0.003659
0.014900	-0.003340
0.014920	-0.003977
0.014940	-0.003659
0.014960	-0.003659
0.014980	-0.004296
0.015000	-0.003659
0.015020	-0.003977
0.015040	-0.003977
0.015060	-0.003659
0.015080	-0.003340
0.015100	-0.002065
0.015120	-0.003340
0.015140	-0.003340
0.015160	-0.002703
0.015180	-0.003021
0.015200	-0.002065
0.015220	-0.003659
0.015240	-0.003340
0.015260	-0.003977
0.015280	-0.005252
0.015300	-0.003659
0.015320	-0.003659
0.015340	-0.003340
0.015360	-0.003340
0.015380	-0.003977
0.015400	-0.003659
0.015420	-0.003659
0.015440	-0.003340
0.015460	-0.002703
0.015480	-0.002703
0.015500	-0.002384
0.015520	-0.003340
0.015540	-0.003340
0.015560	-0.003021
0.015580	-0.004296
0.015600	-0.003340
0.015620	-0.004933
0.015640	-0.003659
0.015660	-0.002703
0.015680	-0.003659
0.015700	-0.003340
0.015720	-0.003340
0.015740	-0.003659
0.015760	-0.002384
0.015780	-0.003340
0.015800	-0.000791
0.015820	-0.002384
0.015840	-0.003340
0.015860	-0.003977
0.015880	-0.003021
0.015900	-0.003021
0.015920	-0.003340
0.015940	-0.003659
0.015960	-0.003340
0.015980	-0.003977
0.016000	-0.002703
0.016020	-0.003659
0.016040	-0.003021
0.016060	-0.002065
0.016080	-0.002703
0.016100	-0.003340
0.016120	-0.003977
0.016140	-0.002384
0.016160	-0.002384
0.016180	-0.003340
0.016200	-0.003340
0.016220	-0.003977
0.016240	-0.004933
0.016260	-0.003021
0.016280	-0.003977
0.016300	-0.003021
0.016320	-0.003340
0.016340	-0.003977
0.016360	-0.002384
0.016380	-0.003340
0.016400	-0.002384
0.016420	-0.002703
0.016440	-0.003659
0.016460	-0.002703
0.016480	-0.003977
0.016500	-0.003659
0.016520	-0.003659
0.016540	-0.003977
0.016560	-0.002703
0.016580	-0.004296
0.016600	-0.004296
0.016620	-0.002384
0.016640	-0.003340
0.016660	-0.002703
0.016680	-0.003021
0.016700	-0.003659
0.016720	-0.002384
0.016740	-0.003340
0.016760	-0.001109
0.016780	-0.002384
0.016800	-0.003340
0.016820	-0.003659
0.016840	-0.004296
0.016860	-0.003340
0.016880	-0.003659
0.016900	-0.003659
0.016920	-0.003977
0.016940	-0.003977
0.016960	-0.003021
0.016980	-0.003021
0.017000	-0.002703
0.017020	-0.001428
0.017040	-0.003021
0.017060	-0.003021
0.017080	-0.002703
0.017100	-0.002384
0.017120	-0.003021
0.017140	-0.004296
0.017160	-0.002703
0.017180	-0.004296
0.017200	-0.004615
0.017220	-0.002703
0.017240	-0.003977
0.017260	-0.003340
0.017280	-0.004296
0.017300	-0.003659
0.017320	-0.003021
0.017340	-0.003659
0.017360	-0.002065
0.017380	-0.002065
0.017400	-0.004296
0.017420	-0.003021
0.017440	-0.003340
0.017460	-0.003340
0.017480	-0.003977
0.017500	-0.003977
0.017520	-0.003021
0.017540	-0.004615
0.017560	-0.004615
0.017580	-0.002703
0.017600	-0.003659
0.017620	-0.003659
0.017640	-0.002703
0.017660	-0.003340
0.017680	-0.003340
0.017700	-0.002703
0.017720	-0.001428
0.017740	-0.003340
0.017760	-0.003340
0.017780	-0.002384
0.017800	-0.003977
0.017820	-0.003977
0.017840	-0.002703
0.017860	-0.003659
0.017880	-0.004296
0.017900	-0.003977
0.017920	-0.003340
0.017940	-0.003340
0.017960	-0.003021
0.017980	-0.002384
0.018000	-0.002384
0.018020	-0.003659
0.018040	-0.002703
0.018060	-0.002703
0.018080	-0.003021
0.018100	-0.003659
0.018120	-0.003340
0.018140	-0.003659
0.018160	-0.005252
0.018180	-0.002703
0.018200	-0.004296
0.018220	-0.003659
0.018240	-0.004296
0.018260	-0.003977
0.018280	-0.003340
0.018300	-0.003659
0.018320	-0.002065
0.018340	-0.002384
0.018360	-0.003977
0.018380	-0.002703
0.018400	-0.002703
0.018420	-0.003340
0.018440	-0.003021
0.018460	-0.003659
0.018480	-0.003659
0.018500	-0.004933
0.018520	-0.004296
0.018540	-0.003021
0.018560	-0.003977
0.018580	-0.003659
0.018600	-0.002384
0.018620	-0.003659
0.018640	-0.002703
0.018660	-0.002703
0.018680	-0.001747
0.018700	-0.002703
0.018720	-0.003659
0.018740	-0.002703
0.018760	-0.003340
0.018780	-0.003340
0.018800	-0.003659
0.018820	-0.004296
0.018840	-0.004615
0.018860	-0.004296
0.018880	-0.003340
0.018900	-0.003659
0.018920	-0.002703
0.018940	-0.002384
0.018960	-0.003021
0.018980	-0.003340
0.019000	-0.003659
0.019020	-0.003021
0.019040	-0.002384
0.019060	-0.003659
0.019080	-0.003659
0.019100	-0.003977
0.019120	-0.005252
0.019140	-0.002703
0.019160	-0.003659
0.019180	-0.003340
0.019200	-0.003977
0.019220	-0.003977
0.019240	-0.002703
0.019260	-0.003340
0.019280	-0.002703
0.019300	-0.002384
0.019320	-0.003340
0.019340	-0.002384
0.019360	-0.003977
0.019380	-0.003021
0.019400	-0.003340
0.019420	-0.003021
0.019440	-0.003021
0.019460	-0.004933
0.019480	-0.003977
0.019500	-0.003021
0.019520	-0.003977
0.019540	-0.003340
0.019560	-0.002703
0.019580	-0.003021
0.019600	-0.002384
0.019620	-0.003659
0.019640	-0.001109
0.019660	-0.002703
0.019680	-0.003659
0.019700	-0.003340
0.019720	-0.003340
0.019740	-0.003340
0.019760	-0.003977
0.019780	-0.003659
0.019800	-0.003659
0.019820	-0.004296
0.019840	-0.002703
0.019860	-0.003021
0.019880	-0.003340
0.019900	-0.002703
0.019920	-0.003340
0.019940	-0.002703
0.019960	-0.003977
0.019980	-0.003021
0.020000	-0.002384
0.020020	-0.003340
0.020040	-0.003021
0.020060	-0.003340
0.020080	-0.003977
0.020100	-0.003340
0.020120	-0.004615
0.020140	-0.003021
0.020160	-0.004296
0.020180	-0.003977
0.020200	-0.002703
0.020220	-0.003340
0.020240	-0.002384
0.020260	-0.002384
0.020280	-0.003659
0.020300	-0.002384
0.020320	-0.003340
0.020340	-0.002703
0.020360	-0.003340
0.020380	-0.003977
0.020400	-0.003340
0.020420	-0.004296
0.020440	-0.004296
0.020460	-0.002703
0.020480	-0.003340
0.020500	-0.003021
0.020520	-0.003021
0.020540	-0.003340
0.020560	-0.003021
0.020580	-0.003340
0.020600	-0.001747
0.020620	-0.003021
0.020640	-0.003659
0.020660	-0.003021
0.020680	-0.004296
0.020700	-0.004296
0.020720	-0.003659
0.020740	-0.003659
0.020760	-0.003659
0.020780	-0.004615
0.020800	-0.003340
0.020820	-0.003659
0.020840	-0.003021
0.020860	-0.002384
0.020880	-0.002065
0.020900	-0.002703
0.020920	-0.003340
0.020940	-0.003021
0.020960	-0.003021
0.020980	-0.003659
0.021000	-0.002384
0.021020	-0.003977
0.021040	-0.005252
0.021060	-0.003021
0.021080	-0.003977
0.021100	-0.003977
0.021120	-0.003659
0.021140	-0.003977
0.021160	-0.003021
0.021180	-0.003977
0.021200	-0.002384
0.021220	-0.002703
0.021240	-0.003977
0.021260	-0.002703
0.021280	-0.003659
0.021300	-0.003340
0.021320	-0.003021
0.021340	-0.003977
0.021360	-0.003659
0.021380	-0.004933
0.021400	-0.003340
0.021420	-0.002703
0.021440	-0.004296
0.021460	-0.002703
0.021480	-0.002703
0.021500	-0.003659
0.021520	-0.003021
0.021540	-0.003021
0.021560	-0.001747
0.021580	-0.002703
0.021600	-0.003659
0.021620	-0.003659
0.021640	-0.004296
0.021660	-0.003659
0.021680	-0.003021
0.021700	-0.004296
0.021720	-0.003977
0.021740	-0.003659
0.021760	-0.003021
0.021780	-0.003021
0.021800	-0.003659
0.021820	-0.001428
0.021840	-0.002703
0.021860	-0.003021
0.021880	-0.002703
0.021900	-0.002703
0.021920	-0.003340
0.021940	-0.003340
0.021960	-0.003659
0.021980	-0.003977
0.022000	-0.004933
0.022020	-0.002703
0.022040	-0.003659
0.022060	-0.003340
0.022080	-0.004296
0.022100	-0.003340
0.022120	-0.003340
0.022140	-0.002703
0.022160	-0.001747
0.022180	-0.002384
0.022200	-0.003977
0.022220	-0.002384
0.022240	-0.003021
0.022260	-0.003659
0.022280	-0.003021
0.022300	-0.003659
0.022320	-0.003659
0.022340	-0.004296
0.022360	-0.004615
0.022380	-0.002703
0.022400	-0.004615
0.022420	-0.002703
0.022440	-0.002703
0.022460	-0.003340
0.022480	-0.003021
0.022500	-0.002384
0.022520	-0.002065
0.022540	-0.003340
0.022560	-0.003659
0.022580	-0.003659
0.022600	-0.004296
0.022620	-0.002703
0.022640	-0.003340
0.022660	-0.003977
0.022680	-0.003977
0.022700	-0.003340
0.022720	-0.003977
0.022740	-0.002703
0.022760	-0.003021
0.022780	-0.002703
0.022800	-0.003340
0.022820	-0.002703
0.022840	-0.002703
0.022860	-0.002703
0.022880	-0.002065
0.022900	-0.003340
0.022920	-0.002703
0.022940	-0.003659
0.022960	-0.005252
0.022980	-0.003340
0.023000	-0.003659
0.023020	-0.003659
0.023040	-0.003340
0.023060	-0.003659
0.023080	-0.002703
0.023100	-0.002703
0.023120	-0.002065
0.023140	-0.002384
0.023160	-0.003340
0.023180	-0.002065
0.023200	-0.003340
0.023220	-0.003340
0.023240	-0.003021
0.023260	-0.003977
0.023280	-0.004296
0.023300	-0.004296
0.023320	-0.004296
0.023340	-0.002384
0.023360	-0.003021
0.023380	-0.003340
0.023400	-0.003021
0.023420	-0.002703
0.023440	-0.002384
0.023460	-0.003021
0.023480	-0.001747
0.023500	-0.002384
0.023520	-0.003021
0.023540	-0.003340
0.023560	-0.003659
0.023580	-0.003659
0.023600	-0.003021
0.023620	-0.003340
0.023640	-0.002703
0.023660	-0.003659
0.023680	-0.002384
0.023700	-0.003340
0.023720	-0.002384
0.023740	-0.001747
0.023760	-0.002703
0.023780	-0.003021
0.023800	-0.002703
0.023820	-0.002703
0.023840	-0.002703
0.023860	-0.003977
0.023880	-0.002703
0.023900	-0.003340
0.023920	-0.005252
0.023940	-0.002703
0.023960	-0.003659
0.023980	-0.003340
0.024000	-0.003340
0.024020	-0.003021
0.024040	-0.001747
0.024060	-0.003021
0.024080	-0.001428
0.024100	-0.002065
0.024120	-0.003977
0.024140	-0.002384
0.024160	-0.003340
0.024180	-0.003659
0.024200	-0.002384
0.024220	-0.003340
0.024240	-0.002703
0.024260	-0.004296
0.024280	-0.004296
0.024300	-0.002703
0.024320	-0.003340
0.024340	-0.002384
0.024360	-0.002065
0.024380	-0.003021
0.024400	-0.002703
0.024420	-0.002703
0.024440	-0.001109
0.024460	-0.002703
0.024480	-0.003021
0.024500	-0.002384
0.024520	-0.003977
0.024540	-0.003659
0.024560	-0.003021
0.024580	-0.002384
0.024600	-0.003340
0.024620	-0.003021
0.024640	-0.002065
0.024660	-0.003021
0.024680	-0.002703
0.024700	-0.001109
0.024720	-0.001747
0.024740	-0.002703
0.024760	-0.002703
0.024780	-0.002065
0.024800	-0.002384
0.024820	-0.002703
0.024840	-0.002703
0.024860	-0.002384
0.024880	-0.004296
0.024900	-0.001747
0.024920	-0.002703
0.024940	-0.003021
0.024960	-0.002065
0.024980	-0.002384
0.025000	-0.002065
0.025020	-0.002703
0.025040	-0.001747
0.025060	-0.002065
0.025080	-0.002703
0.025100	-0.001747
0.025120	-0.002703
0.025140	-0.003977
0.025160	-0.002703
0.025180	-0.003340
0.025200	-0.002703
0.025220	-0.003977
0.025240	-0.003659
0.025260	-0.001747
0.025280	-0.002703
0.025300	-0.001428
0.025320	-0.001428
0.025340	-0.002703
0.025360	-0.001428
0.025380	-0.001428
0.025400	-0.000153
0.025420	-0.001428
0.025440	-0.001747
0.025460	-0.001428
0.025480	-0.003659
0.025500	-0.002384
0.025520	-0.001428
0.025540	-0.002065
0.025560	-0.001747
0.025580	-0.002703
0.025600	-0.001747
0.025620	-0.002703
0.025640	-0.001109
0.025660	0.000165
0.025680	-0.000791
0.025700	-0.000791
0.025720	-0.001428
0.025740	-0.001109
0.025760	-0.000791
0.025780	-0.001428
0.025800	-0.001428
0.025820	-0.002703
0.025840	-0.003977
0.025860	-0.002065
0.025880	-0.004615
0.025900	-0.003021
0.025920	-0.002384
0.025940	-0.000153
0.025960	0.004945
0.025980	0.008770
0.026000	0.015780
0.026020	0.021517
0.026040	0.025978
0.026060	0.029802
0.026080	0.029484
0.026100	0.029484
0.026120	0.029484
0.026140	0.028209
0.026160	0.027571
0.026180	0.024703
0.026200	0.024385
0.026220	0.025341
0.026240	0.025659
0.026260	0.025978
0.026280	0.026297
0.026300	0.025341
0.026320	0.024066
0.026340	0.023429
0.026360	0.025022
0.026380	0.022791
0.026400	0.023110
0.026420	0.022791
0.026440	0.022154
0.026460	0.022473
0.026480	0.021835
0.026500	0.021835
0.026520	0.020879
0.026540	0.020242
0.026560	0.021198
0.026580	0.020561
0.026600	0.021198
0.026620	0.021835
0.026640	0.021198
0.026660	0.020561
0.026680	0.018649
0.026700	0.019286
0.026720	0.018967
0.026740	0.017693
0.026760	0.018330
0.026780	0.017693
0.026800	0.016737
0.026820	0.018011
0.026840	0.017693
0.026860	0.018330
0.026880	0.017055
0.026900	0.017693
0.026920	0.019286
0.026940	0.019605
0.026960	0.019605
0.026980	0.019923
0.027000	0.019286
0.027020	0.018649
0.027040	0.019286
0.027060	0.019286
0.027080	0.019286
0.027100	0.019286
0.027120	0.020561
0.027140	0.018967
0.027160	0.019286
0.027180	0.020561
0.027200	0.019605
0.027220	0.020242
0.027240	0.020561
0.027260	0.020561
0.027280	0.020242
0.027300	0.021517
0.027320	0.023429
0.027340	0.021198
0.027360	0.020879
0.027380	0.020561
0.027400	0.021198
0.027420	0.020879
0.027440	0.021198
0.027460	0.021517
0.027480	0.020879
0.027500	0.019923
0.027520	0.021517
0.027540	0.021517
0.027560	0.020561
0.027580	0.021517
0.027600	0.022154
0.027620	0.022473
0.027640	0.021198
0.027660	0.022473
0.027680	0.021835
0.027700	0.020879
0.027720	0.021517
0.027740	0.021835
0.027760	0.019605
0.027780	0.021517
0.027800	0.021198
0.027820	0.021517
0.027840	0.021198
0.027860	0.020561
0.027880	0.021517
0.027900	0.021517
0.027920	0.022154
0.027940	0.022791
0.027960	0.021835
0.027980	0.021835
0.028000	0.023429
0.028020	0.023747
0.028040	0.021835
0.028060	0.022473
0.028080	0.022473
0.028100	0.021517
0.028120	0.022154
0.028140	0.023429
0.028160	0.023110
0.028180	0.022473
0.028200	0.023747
0.028220	0.023429
0.028240	0.023429
0.028260	0.023747
0.028280	0.025659
0.028300	0.024066
0.028320	0.024703
0.028340	0.023747
0.028360	0.024703
0.028380	0.023429
0.028400	0.023747
0.028420	0.024066
0.028440	0.022473
0.028460	0.022154
0.028480	0.024703
0.028500	0.024066
0.028520	0.024385
0.028540	0.024066
0.028560	0.024385
0.028580	0.024385
0.028600	0.024385
0.028620	0.025341
0.028640	0.024385
0.028660	0.025022
0.028680	0.025659
0.028700	0.024703
0.028720	0.023110
0.028740	0.025341
0.028760	0.024703
0.028780	0.025022
0.028800	0.024385
0.028820	0.025341
0.028840	0.025022
0.028860	0.024385
0.028880	0.026615
0.028900	0.026297
0.028920	0.025659
0.028940	0.025978
0.028960	0.025978
0.028980	0.026297
0.029000	0.025659
0.029020	0.026297
0.029040	0.026297
0.029060	0.025341
0.029080	0.026297
0.029100	0.026297
0.029120	0.025978
0.029140	0.026297
0.029160	0.027253
0.029180	0.025978
0.029200	0.026297
0.029220	0.026297
0.029240	0.027571
0.029260	0.026297
0.029280	0.026934
0.029300	0.026934
0.029320	0.026615
0.029340	0.026615
0.029360	0.026934
0.029380	0.026297
0.029400	0.025659
0.029420	0.024066
0.029440	0.026934
0.029460	0.025978
0.029480	0.027890
0.029500	0.027571
0.029520	0.026934
0.029540	0.027253
0.029560	0.027253
0.029580	0.027571
0.029600	0.027253
0.029620	0.026615
0.029640	0.027253
0.029660	0.026615
0.029680	0.025978
0.029700	0.026934
0.029720	0.026297
0.029740	0.027253
0.029760	0.026297
0.029780	0.026297
0.029800	0.026934
0.029820	0.026934
0.029840	0.027890
0.029860	0.027253
0.029880	0.026297
0.029900	0.027571
0.029920	0.026297
0.029940	0.027253
0.029960	0.026934
0.029980	0.026615
0.030000	0.026297
0.030020	0.026297
0.030040	0.025978
0.030060	0.026615
0.030080	0.026297
0.030100	0.026615
0.030120	0.026615
0.030140	0.026934
0.030160	0.026615
0.030180	0.027253
0.030200	0.028209
0.030220	0.027890
0.030240	0.027890
0.030260	0.027253
0.030280	0.027253
0.030300	0.026934
0.030320	0.027253
0.030340	0.027890
0.030360	0.027253
0.030380	0.026615
0.030400	0.027571
0.030420	0.026934
0.030440	0.027571
0.030460	0.026934
0.030480	0.027571
0.030500	0.027253
0.030520	0.026934
0.030540	0.028209
0.030560	0.028209
0.030580	0.027253
0.030600	0.027253
0.030620	0.026934
0.030640	0.026297
0.030660	0.027571
0.030680	0.026934
0.030700	0.027890
0.030720	0.026297
0.030740	0.026934
0.030760	0.027571
0.030780	0.026615
0.030800	0.028209
0.030820	0.028846
0.030840	0.027253
0.030860	0.027890
0.030880	0.026615
0.030900	0.027890
0.030920	0.027253
0.030940	0.026934
0.030960	0.026934
0.030980	0.026297
0.031000	0.026297
0.031020	0.027253
0.031040	0.026615
0.031060	0.025978
0.031080	0.026934
0.031100	0.027890
0.031120	0.027890
0.031140	0.027890
0.031160	0.028528
0.031180	0.026615
0.031200	0.027571
0.031220	0.026934
0.031240	0.026934
0.031260	0.026934
0.031280	0.027253
0.031300	0.028209
0.031320	0.026934
0.031340	0.025978
0.031360	0.027890
0.031380	0.026934
0.031400	0.027253
0.031420	0.028209
0.031440	0.027571
0.031460	0.028528
0.031480	0.027571
0.031500	0.028846
0.031520	0.029165
0.031540	0.027571
0.031560	0.028209
0.031580	0.028209
0.031600	0.027253
0.031620	0.028209
0.031640	0.027253
0.031660	0.027571
0.031680	0.027571
0.031700	0.028209
0.031720	0.028209
0.031740	0.027890
0.031760	0.029165
0.031780	0.029484
0.031800	0.028528
0.031820	0.029484
0.031840	0.029165
0.031860	0.030121
0.031880	0.029165
0.031900	0.028528
0.031920	0.029484
0.031940	0.027890
0.031960	0.028528
0.031980	0.029484
0.032000	0.029165
0.032020	0.028846
0.032040	0.028528
0.032060	0.029484
0.032080	0.028846
0.032100	0.029165
0.032120	0.031077
0.032140	0.028209
0.032160	0.029802
0.032180	0.029802
0.032200	0.029165
0.032220	0.029165
0.032240	0.028528
0.032260	0.030440
0.032280	0.029484
0.032300	0.028209
0.032320	0.030121
0.032340	0.029165
0.032360	0.029802
0.032380	0.030121
0.032400	0.030758
0.032420	0.030121
0.032440	0.029802
0.032460	0.031077
0.032480	0.031396
0.032500	0.030121
0.032520	0.030758
0.032540	0.029802
0.032560	0.029484
0.032580	0.030758
0.032600	0.029802
0.032620	0.029484
0.032640	0.028846
0.032660	0.029802
0.032680	0.031396
0.032700	0.029165
0.032720	0.031714
0.032740	0.031077
0.032760	0.029484
0.032780	0.030440
0.032800	0.029802
0.032820	0.031396
0.032840	0.030758
0.032860	0.030440
0.032880	0.030121
0.032900	0.029165
0.032920	0.029165
0.032940	0.030440
0.032960	0.029802
0.032980	0.030440
0.033000	0.030440
0.033020	0.030440
0.033040	0.029484
0.033060	0.031396
0.033080	0.031396
0.033100	0.029802
0.033120	0.030758
0.033140	0.031077
0.033160	0.029802
0.033180	0.029802
0.033200	0.028846
0.033220	0.029484
0.033240	0.029802
0.033260	0.028846
0.033280	0.030440
0.033300	0.028528
0.033320	0.030440
0.033340	0.031077
0.033360	0.029802
0.033380	0.029484
0.033400	0.030440
0.033420	0.030440
0.033440	0.030121
0.033460	0.029165
0.033480	0.029802
0.033500	0.028846
0.033520	0.028528
0.033540	0.030440
0.033560	0.028528
0.033580	0.029484
0.033600	0.028209
0.033620	0.028846
0.033640	0.028846
0.033660	0.029484
0.033680	0.029802
0.033700	0.029484
0.033720	0.029802
0.033740	0.030440
0.033760	0.029484
0.033780	0.029802
0.033800	0.028846
0.033820	0.028209
0.033840	0.028528
0.033860	0.028209
0.033880	0.028846
0.033900	0.029165
0.033920	0.028846
0.033940	0.029484
0.033960	0.029165
0.033980	0.029484
0.034000	0.029484
0.034020	0.028846
0.034040	0.031077
0.034060	0.029484
0.034080	0.029484
0.034100	0.029165
0.034120	0.028846
0.034140	0.028528
0.034160	0.029165
0.034180	0.029165
0.034200	0.027890
0.034220	0.027890
0.034240	0.028528
0.034260	0.029165
0.034280	0.029484
0.034300	0.029484
0.034320	0.029802
0.034340	0.029484
0.034360	0.028528
0.034380	0.029484
0.034400	0.030121
0.034420	0.028528
0.034440	0.029165
0.034460	0.028846
0.034480	0.027253
0.034500	0.028528
0.034520	0.028528
0.034540	0.029165
0.034560	0.027571
0.034580	0.028846
0.034600	0.028846
0.034620	0.028846
0.034640	0.028846
0.034660	0.029165
0.034680	0.027890
0.034700	0.028528
0.034720	0.028846
0.034740	0.029484
0.034760	0.027890
0.034780	0.028528
0.034800	0.028846
0.034820	0.027890
0.034840	0.027571
0.034860	0.027571
0.034880	0.027571
0.034900	0.028209
0.034920	0.027571
0.034940	0.028846
0.034960	0.027890
0.034980	0.027890
0.035000	0.029484
0.035020	0.028209
0.035040	0.028209
0.035060	0.027890
0.035080	0.028528
0.035100	0.028209
0.035120	0.027571
0.035140	0.028209
0.035160	0.026934
0.035180	0.026615
0.035200	0.029165
0.035220	0.027890
0.035240	0.027890
0.035260	0.027571
0.035280	0.027890
0.035300	0.028209
0.035320	0.027890
0.035340	0.028846
0.035360	0.028528
0.035380	0.027890
0.035400	0.028846
0.035420	0.027890
0.035440	0.026615
0.035460	0.027571
0.035480	0.027890
0.035500	0.028846
0.035520	0.027253
0.035540	0.027890
0.035560	0.029165
0.035580	0.027890
0.035600	0.028846
0.035620	0.028528
0.035640	0.028209
0.035660	0.028528
0.035680	0.028209
0.035700	0.029802
0.035720	0.027890
0.035740	0.028846
0.035760	0.029165
0.035780	0.027890
0.035800	0.027571
0.035820	0.028209
0.035840	0.027890
0.035860	0.027890
0.035880	0.028846
0.035900	0.028528
0.035920	0.028846
0.035940	0.029484
0.035960	0.031077
0.035980	0.029165
0.036000	0.028846
0.036020	0.029165
0.036040	0.029165
0.036060	0.028846
0.036080	0.029484
0.036100	0.029165
0.036120	0.028209
0.036140	0.027571
0.036160	0.029802
0.036180	0.028846
0.036200	0.029165
0.036220	0.028846
0.036240	0.029484
0.036260	0.029802
0.036280	0.028846
0.036300	0.029484
0.036320	0.030440
0.036340	0.028846
0.036360	0.030440
0.036380	0.029484
0.036400	0.028846
0.036420	0.030121
0.036440	0.029802
0.036460	0.029484
0.036480	0.028209
0.036500	0.029165
0.036520	0.029484
0.036540	0.029484
0.036560	0.030121
0.036580	0.031396
0.036600	0.029165
0.036620	0.029802
0.036640	0.030440
0.036660	0.031077
0.036680	0.029802
0.036700	0.029802
0.036720	0.029484
0.036740	0.029165
0.036760	0.029802
0.036780	0.030440
0.036800	0.030121
0.036820	0.029165
0.036840	0.030440
0.036860	0.030121
0.036880	0.029484
0.036900	0.030440
0.036920	0.031396
0.036940	0.030440
0.036960	0.030440
0.036980	0.030758
0.037000	0.031077
0.037020	0.030440
0.037040	0.030440
0.037060	0.030440
0.037080	0.029802
0.037100	0.028846
0.037120	0.030758
0.037140	0.030121
0.037160	0.031077
0.037180	0.030440
0.037200	0.031396
0.037220	0.031396
0.037240	0.030440
0.037260	0.031396
0.037280	0.031396
0.037300	0.031077
0.037320	0.030758
0.037340	0.030758
0.037360	0.030121
0.037380	0.031396
0.037400	0.030121
0.037420	0.031077
0.037440	0.030121
0.037460	0.030758
0.037480	0.031714
0.037500	0.031077
0.037520	0.031396
0.037540	0.031077
0.037560	0.031714
0.037580	0.031714
0.037600	0.031077
0.037620	0.032989
0.037640	0.031396
0.037660	0.032033
0.037680	0.031714
0.037700	0.030758
0.037720	0.031714
0.037740	0.031714
0.037760	0.031714
0.037780	0.031396
0.037800	0.031714
0.037820	0.032033
0.037840	0.031714
0.037860	0.032670
0.037880	0.032989
0.037900	0.032033
0.037920	0.032352
0.037940	0.032033
0.037960	0.032670
0.037980	0.032989
0.038000	0.032670
0.038020	0.032352
0.038040	0.032352
0.038060	0.030758
0.038080	0.032670
0.038100	0.032352
0.038120	0.032670
0.038140	0.032670
0.038160	0.033308
0.038180	0.033945
0.038200	0.032352
0.038220	0.033945
0.038240	0.033945
0.038260	0.032670
0.038280	0.032989
0.038300	0.033308
0.038320	0.033308
0.038340	0.033308
0.038360	0.033945
0.038380	0.033308
0.038400	0.032033
0.038420	0.032670
0.038440	0.033626
0.038460	0.033308
0.038480	0.033626
0.038500	0.034582
0.038520	0.033626
0.038540	0.033945
0.038560	0.033945
0.038580	0.035538
0.038600	0.033626
0.038620	0.034264
0.038640	0.033945
0.038660	0.033945
0.038680	0.033626
0.038700	0.033308
0.038720	0.033945
0.038740	0.033626
0.038760	0.032989
0.038780	0.034264
0.038800	0.034582
0.038820	0.033626
0.038840	0.034582
0.038860	0.034264
0.038880	0.033626
0.038900	0.033945
0.038920	0.033945
0.038940	0.034582
0.038960	0.033945
0.038980	0.034582
0.039000	0.033945
0.039020	0.032033
0.039040	0.034264
0.039060	0.034264
0.039080	0.034582
0.039100	0.033945
0.039120	0.034582
0.039140	0.033945
0.039160	0.033626
0.039180	0.035220
0.039200	0.035538
0.039220	0.033945
0.039240	0.034901
0.039260	0.034901
0.039280	0.035538
0.039300	0.034264
0.039320	0.034582
0.039340	0.034264
0.039360	0.033626
0.039380	0.034264
0.039400	0.034901
0.039420	0.034264
0.039440	0.034582
0.039460	0.035220
0.039480	0.034264
0.039500	0.034264
0.039520	0.035220
0.039540	0.036176
0.039560	0.034582
0.039580	0.035538
0.039600	0.034264
0.039620	0.033945
0.039640	0.034582
0.039660	0.034901
0.039680	0.035220
0.039700	0.033945
0.039720	0.033945
0.039740	0.035220
0.039760	0.034582
0.039780	0.035538
0.039800	0.035538
0.039820	0.034901
0.039840	0.035538
0.039860	0.035538
0.039880	0.036494
0.039900	0.035538
0.039920	0.035220
0.039940	0.035857
0.039960	0.035538
0.039980	0.034582
0.040000	0.036494
0.040020	0.034901
0.040040	0.036176
0.040060	0.035220
0.040080	0.036813
0.040100	0.035857
0.040120	0.035538
0.040140	0.036813
0.040160	0.036813
0.040180	0.036494
0.040200	0.036813
0.040220	0.036176
0.040240	0.036813
0.040260	0.036176
0.040280	0.036176
0.040300	0.035857
0.040320	0.035220
0.040340	0.035857
0.040360	0.036494
0.040380	0.036176
0.040400	0.037450
0.040420	0.037450
0.040440	0.036494
0.040460	0.036813
0.040480	0.037450
0.040500	0.038725
0.040520	0.037450
0.040540	0.037769
0.040560	0.037769
0.040580	0.036813
0.040600	0.037132
0.040620	0.037450
0.040640	0.037769
0.040660	0.037132
0.040680	0.036813
0.040700	0.037769
0.040720	0.036813
0.040740	0.037769
0.040760	0.039044
0.040780	0.037769
0.040800	0.038088
0.040820	0.037132
0.040840	0.038725
0.040860	0.038725
0.040880	0.037769
0.040900	0.038725
0.040920	0.037769
0.040940	0.036176
0.040960	0.038088
0.040980	0.037769
0.041000	0.039044
0.041020	0.036813
0.041040	0.038725
0.041060	0.039044
0.041080	0.038725
0.041100	0.038406
0.041120	0.039363
0.041140	0.038088
0.041160	0.039044
0.041180	0.037450
0.041200	0.038088
0.041220	0.038406
0.041240	0.038725
0.041260	0.038725
0.041280	0.037450
0.041300	0.038088
0.041320	0.038406
0.041340	0.038725
0.041360	0.038725
0.041380	0.039363
0.041400	0.039363
0.041420	0.040319
0.041440	0.039681
0.041460	0.041275
0.041480	0.040000
0.041500	0.039681
0.041520	0.039363
0.041540	0.039363
0.041560	0.040319
0.041580	0.039044
0.041600	0.039363
0.041620	0.039044
0.041640	0.039044
0.041660	0.039681
0.041680	0.039363
0.041700	0.039681
0.041720	0.040956
0.041740	0.040956
0.041760	0.040637
0.041780	0.040637
0.041800	0.040956
0.041820	0.041275
0.041840	0.040637
0.041860	0.041275
0.041880	0.040637
0.041900	0.039363
0.041920	0.040637
0.041940	0.040000
0.041960	0.041275
0.041980	0.040637
0.042000	0.040956
0.042020	0.042231
0.042040	0.040956
0.042060	0.041593
0.042080	0.041912
0.042100	0.041275
0.042120	0.041593
0.042140	0.041912
0.042160	0.042231
0.042180	0.041593
0.042200	0.041275
0.042220	0.042231
0.042240	0.041275
0.042260	0.041593
0.042280	0.042231
0.042300	0.041912
0.042320	0.042231
0.042340	0.042231
0.042360	0.042231
0.042380	0.042868
0.042400	0.042549
0.042420	0.044780
0.042440	0.042549
0.042460	0.042868
0.042480	0.042868
0.042500	0.042549
0.042520	0.042549
0.042540	0.041912
0.042560	0.043505
0.042580	0.043187
0.042600	0.041912
0.042620	0.044143
0.042640	0.042868
0.042660	0.043187
0.042680	0.044143
0.042700	0.044143
0.042720	0.043824
0.042740	0.043505
0.042760	0.045417
0.042780	0.044461
0.042800	0.043505
0.042820	0.044143
0.042840	0.043187
0.042860	0.042231
0.042880	0.043824
0.042900	0.043187
0.042920	0.043824
0.042940	0.043187
0.042960	0.044143
0.042980	0.043824
0.043000	0.043824
0.043020	0.044780
0.043040	0.045099
0.043060	0.044461
0.043080	0.044461
0.043100	0.044780
0.043120	0.044780
0.043140	0.043505
0.043160	0.044780
0.043180	0.044780
0.043200	0.042868
0.043220	0.044461
0.043240	0.043824
0.043260	0.043505
0.043280	0.044780
0.043300	0.045417
0.043320	0.044780
0.043340	0.044461
0.043360	0.045736
0.043380	0.046373
0.043400	0.044143
0.043420	0.045099
0.043440	0.044461
0.043460	0.045099
0.043480	0.045099
0.043500	0.044461
0.043520	0.045099
0.043540	0.044780
0.043560	0.044143
0.043580	0.045099
0.043600	0.044461
0.043620	0.046055
0.043640	0.046692
0.043660	0.046373
0.043680	0.046055
0.043700	0.045736
0.043720	0.046692
0.043740	0.045736
0.043760	0.045736
0.043780	0.046692
0.043800	0.045736
0.043820	0.044780
0.043840	0.047648
0.043860	0.045417
0.043880	0.046055
0.043900	0.045417
0.043920	0.046692
0.043940	0.046692
0.043960	0.046692
0.043980	0.047967
0.044000	0.047329
0.044020	0.047648
0.044040	0.047648
0.044060	0.047329
0.044080	0.048285
0.044100	0.047329
0.044120	0.047648
0.044140	0.047967
0.044160	0.046692
0.044180	0.047329
0.044200	0.047329
0.044220	0.047329
0.044240	0.047967
0.044260	0.049560
0.044280	0.048285
0.044300	0.048285
0.044320	0.049241
0.044340	0.048923
0.044360	0.048604
0.044380	0.048923
0.044400	0.048923
0.044420	0.048604
0.044440	0.049241
0.044460	0.048923
0.044480	0.049241
0.044500	0.047967
0.044520	0.048285
0.044540	0.049241
0.044560	0.048923
0.044580	0.049879
0.044600	0.049879
0.044620	0.049560
0.044640	0.049879
0.044660	0.049560
0.044680	0.050835
0.044700	0.049879
0.044720	0.050197
0.044740	0.050197
0.044760	0.049560
0.044780	0.048604
0.044800	0.050516
0.044820	0.049560
0.044840	0.050516
0.044860	0.049879
0.044880	0.049879
0.044900	0.050835
0.044920	0.050197
0.044940	0.050835
0.044960	0.051472
0.044980	0.050835
0.045000	0.051791
0.045020	0.051154
0.045040	0.052428
0.045060	0.050197
0.045080	0.051154
0.045100	0.051791
0.045120	0.050835
0.045140	0.051154
0.045160	0.051472
0.045180	0.050835
0.045200	0.051791
0.045220	0.052428
0.045240	0.052428
0.045260	0.052110
0.045280	0.052428
0.045300	0.054340
0.045320	0.052428
0.045340	0.052747
0.045360	0.052747
0.045380	0.053703
0.045400	0.053066
0.045420	0.052747
0.045440	0.054022
0.045460	0.052110
0.045480	0.051791
0.045500	0.053703
0.045520	0.053384
0.045540	0.053384
0.045560	0.053384
0.045580	0.054340
0.045600	0.054659
0.045620	0.054022
0.045640	0.054340
0.045660	0.054340
0.045680	0.054022
0.045700	0.054340
0.045720	0.054022
0.045740	0.053384
0.045760	0.054659
0.045780	0.054340
0.045800	0.054978
0.045820	0.054659
0.045840	0.054659
0.045860	0.055615
0.045880	0.054978
0.045900	0.055934
0.045920	0.056252
0.045940	0.054978
0.045960	0.056571
0.045980	0.055934
0.046000	0.056571
0.046020	0.055934
0.046040	0.056252
0.046060	0.056890
0.046080	0.055296
0.046100	0.056252
0.046120	0.056252
0.046140	0.056890
0.046160	0.055934
0.046180	0.056571
0.046200	0.057208
0.046220	0.056571
0.046240	0.057527
0.046260	0.059758
0.046280	0.057208
0.046300	0.057208
0.046320	0.057527
0.046340	0.057846
0.046360	0.057527
0.046380	0.057527
0.046400	0.057846
0.046420	0.057527
0.046440	0.056571
0.046460	0.058483
0.046480	0.057527
0.046500	0.058483
0.046520	0.058802
0.046540	0.059120
0.046560	0.059120
0.046580	0.058164
0.046600	0.060076
0.046620	0.059439
0.046640	0.058802
0.046660	0.060714
0.046680	0.059120
0.046700	0.058483
0.046720	0.059758
0.046740	0.059439
0.046760	0.060076
0.046780	0.058802
0.046800	0.059758
0.046820	0.060714
0.046840	0.060395
0.046860	0.060714
0.046880	0.061351
0.046900	0.060395
0.046920	0.061670
0.046940	0.061032
0.046960	0.061989
0.046980	0.060395
0.047000	0.061032
0.047020	0.061989
0.047040	0.060395
0.047060	0.061032
0.047080	0.061989
0.047100	0.061670
0.047120	0.061989
0.047140	0.062945
0.047160	0.062945
0.047180	0.062307
0.047200	0.062626
0.047220	0.064857
0.047240	0.063582
0.047260	0.063263
0.047280	0.063582
0.047300	0.063901
0.047320	0.064219
0.047340	0.063901
0.047360	0.064538
0.047380	0.063582
0.047400	0.063263
0.047420	0.065813
0.047440	0.064538
0.047460	0.065494
0.047480	0.065813
0.047500	0.065494
0.047520	0.066450
0.047540	0.066131
0.047560	0.067087
0.047580	0.066450
0.047600	0.065494
0.047620	0.067087
0.047640	0.066131
0.047660	0.065494
0.047680	0.067725
0.047700	0.067406
0.047720	0.067725
0.047740	0.067725
0.047760	0.068043
0.047780	0.068362
0.047800	0.068043
0.047820	0.070593
0.047840	0.070911
0.047860	0.070593
0.047880	0.070911
0.047900	0.069955
0.047920	0.071230
0.047940	0.070593
0.047960	0.071549
0.047980	0.071867
0.048000	0.071230
0.048020	0.070911
0.048040	0.071549
0.048060	0.071549
0.048080	0.072505
0.048100	0.072823
0.048120	0.072505
0.048140	0.072823
0.048160	0.073142
0.048180	0.074417
0.048200	0.073780
0.048220	0.074417
0.048240	0.073461
0.048260	0.073780
0.048280	0.074417
0.048300	0.074417
0.048320	0.074417
0.048340	0.074417
0.048360	0.074417
0.048380	0.075054
0.048400	0.074417
0.048420	0.075692
0.048440	0.075692
0.048460	0.076010
0.048480	0.076966
0.048500	0.075692
0.048520	0.076966
0.048540	0.076966
0.048560	0.076966
0.048580	0.076648
0.048600	0.075692
0.048620	0.074417
0.048640	0.076966
0.048660	0.076329
0.048680	0.077285
0.048700	0.076010
0.048720	0.076966
0.048740	0.077922
0.048760	0.076966
0.048780	0.078241
0.048800	0.077922
0.048820	0.077604
0.048840	0.078241
0.048860	0.077922
0.048880	0.078878
0.048900	0.078878
0.048920	0.078241
0.048940	0.078560
0.048960	0.077922
0.048980	0.077604
0.049000	0.078560
0.049020	0.078878
0.049040	0.078560
0.049060	0.079834
0.049080	0.079516
0.049100	0.080153
0.049120	0.080472
0.049140	0.082384
0.049160	0.080472
0.049180	0.079197
0.049200	0.078878
0.049220	0.079516
0.049240	0.079834
0.049260	0.079197
0.049280	0.080472
0.049300	0.080153
0.049320	0.078878
0.049340	0.080472
0.049360	0.079197
0.049380	0.080153
0.049400	0.080790
0.049420	0.081746
0.049440	0.081428
0.049460	0.081109
0.049480	0.082702
0.049500	0.082384
0.049520	0.081746
0.049540	0.082702
0.049560	0.081746
0.049580	0.080472
0.049600	0.082384
0.049620	0.081746
0.049640	0.082384
0.049660	0.080790
0.049680	0.082702
0.049700	0.082702
0.049720	0.081746
0.049740	0.082702
0.049760	0.083977
0.049780	0.083340
0.049800	0.083977
0.049820	0.083658
0.049840	0.084933
0.049860	0.083977
0.049880	0.084614
0.049900	0.084933
0.049920	0.083658
0.049940	0.085571
0.049960	0.084933
0.049980	0.084614
0.050000	0.084933
0.050020	0.085252
0.050040	0.085889
0.050060	0.084614
0.050080	0.086208
0.050100	0.087801
0.050120	0.086527
0.050140	0.087164
0.050160	0.086527
0.050180	0.087483
0.050200	0.087164
0.050220	0.087164
0.050240	0.087801
0.050260	0.086845
0.050280	0.086208
0.050300	0.088439
0.050320	0.088439
0.050340	0.088439
0.050360	0.088120
0.050380	0.089713
0.050400	0.088439
0.050420	0.088439
0.050440	0.090351
0.050460	0.089713
0.050480	0.089713
0.050500	0.090669
0.050520	0.090351
0.050540	0.089713
0.050560	0.090988
0.050580	0.090351
0.050600	0.090988
0.050620	0.090032
0.050640	0.090669
0.050660	0.091944
0.050680	0.091307
0.050700	0.091625
0.050720	0.092581
0.050740	0.092263
0.050760	0.092263
0.050780	0.093856
0.050800	0.093856
0.050820	0.092263
0.050840	0.093856
0.050860	0.093537
0.050880	0.093219
0.050900	0.093856
0.050920	0.093856
0.050940	0.094812
0.050960	0.094493
0.050980	0.094175
0.051000	0.094812
0.051020	0.094175
0.051040	0.095449
0.051060	0.097362
0.051080	0.095768
0.051100	0.096724
0.051120	0.095449
0.051140	0.097043
0.051160	0.096724
0.051180	0.095768
0.051200	0.097043
0.051220	0.096724
0.051240	0.095768
0.051260	0.097043
0.051280	0.096724
0.051300	0.096724
0.051320	0.096724
0.051340	0.097680
0.051360	0.099592
0.051380	0.098955
0.051400	0.099274
0.051420	0.099274
0.051440	0.098955
0.051460	0.099911
0.051480	0.099911
0.051500	0.099911
0.051520	0.100548
0.051540	0.099592
0.051560	0.100548
0.051580	0.099592
0.051600	0.101186
0.051620	0.100867
0.051640	0.101186
0.051660	0.101504
0.051680	0.101823
0.051700	0.101823
0.051720	0.102142
0.051740	0.103098
0.051760	0.104054
0.051780	0.103098
0.051800	0.104054
0.051820	0.103098
0.051840	0.103416
0.051860	0.103098
0.051880	0.103735
0.051900	0.104372
0.051920	0.104372
0.051940	0.103098
0.051960	0.105328
0.051980	0.104372
0.052000	0.104372
0.052020	0.105647
0.052040	0.105966
0.052060	0.105966
0.052080	0.105966
0.052100	0.106922
0.052120	0.106922
0.052140	0.105966
0.052160	0.107559
0.052180	0.106922
0.052200	0.105966
0.052220	0.107559
0.052240	0.107240
0.052260	0.108197
0.052280	0.107878
0.052300	0.108197
0.052320	0.109790
0.052340	0.108834
0.052360	0.110427
0.052380	0.109471
0.052400	0.109153
0.052420	0.109790
0.052440	0.109790
0.052460	0.110109
0.052480	0.110109
0.052500	0.110746
0.052520	0.110746
0.052540	0.110109
0.052560	0.110746
0.052580	0.111383
0.052600	0.111065
0.052620	0.111702
0.052640	0.113933
0.052660	0.112658
0.052680	0.112658
0.052700	0.113614
0.052720	0.115526
0.052740	0.113933
0.052760	0.114570
0.052780	0.114889
0.052800	0.114889
0.052820	0.115207
0.052840	0.115526
0.052860	0.115526
0.052880	0.115526
0.052900	0.115845
0.052920	0.116801
0.052940	0.116482
0.052960	0.117119
0.052980	0.118075
0.053000	0.117757
0.053020	0.118713
0.053040	0.118394
0.053060	0.119350
0.053080	0.119032
0.053100	0.118713
0.053120	0.119988
0.053140	0.119988
0.053160	0.119032
0.053180	0.121262
0.053200	0.120944
0.053220	0.120944
0.053240	0.120944
0.053260	0.122856
0.053280	0.122856
0.053300	0.123174
0.053320	0.124768
0.053340	0.125086
0.053360	0.124449
0.053380	0.125724
0.053400	0.125724
0.053420	0.125086
0.053440	0.126998
0.053460	0.126680
0.053480	0.126998
0.053500	0.126361
0.053520	0.127954
0.053540	0.129229
0.053560	0.128592
0.053580	0.130185
0.053600	0.131141
0.053620	0.130504
0.053640	0.131460
0.053660	0.131779
0.053680	0.134328
0.053700	0.133053
0.053720	0.133691
0.053740	0.133372
0.053760	0.133372
0.053780	0.134009
0.053800	0.134647
0.053820	0.135603
0.053840	0.134965
0.053860	0.136240
0.053880	0.137196
0.053900	0.135921
0.053920	0.136877
0.053940	0.138152
0.053960	0.138152
0.053980	0.139427
0.054000	0.139745
0.054020	0.140383
0.054040	0.139745
0.054060	0.139745
0.054080	0.141020
0.054100	0.140064
0.054120	0.139427
0.054140	0.142614
0.054160	0.141658
0.054180	0.142614
0.054200	0.141658
0.054220	0.143570
0.054240	0.143888
0.054260	0.143570
0.054280	0.145163
0.054300	0.145482
0.054320	0.144844
0.054340	0.146119
0.054360	0.145800
0.054380	0.146119
0.054400	0.146119
0.054420	0.145800
0.054440	0.146438
0.054460	0.146438
0.054480	0.147712
0.054500	0.147712
0.054520	0.147394
0.054540	0.148350
0.054560	0.149624
0.054580	0.148350
0.054600	0.148668
0.054620	0.149306
0.054640	0.150899
0.054660	0.149306
0.054680	0.150262
0.054700	0.150899
0.054720	0.149624
0.054740	0.150580
0.054760	0.149943
0.054780	0.150580
0.054800	0.150262
0.054820	0.150899
0.054840	0.152492
0.054860	0.151855
0.054880	0.152811
0.054900	0.153130
0.054920	0.153130
0.054940	0.154086
0.054960	0.153130
0.054980	0.153767
0.055000	0.154405
0.055020	0.154405
0.055040	0.154405
0.055060	0.154405
0.055080	0.152811
0.055100	0.155042
0.055120	0.155042
0.055140	0.155679
0.055160	0.155679
0.055180	0.155998
0.055200	0.156635
0.055220	0.155998
0.055240	0.156954
0.055260	0.157591
0.055280	0.156954
0.055300	0.158866
0.055320	0.157910
0.055340	0.158866
0.055360	0.158547
0.055380	0.158866
0.055400	0.159503
0.055420	0.158547
0.055440	0.159822
0.055460	0.159822
0.055480	0.160141
0.055500	0.160778
0.055520	0.161734
0.055540	0.162371
0.055560	0.162690
0.055580	0.163009
0.055600	0.163646
0.055620	0.163009
0.055640	0.163327
0.055660	0.163646
0.055680	0.163646
0.055700	0.164602
0.055720	0.165240
0.055740	0.165558
0.055760	0.165558
0.055780	0.166196
0.055800	0.166833
0.055820	0.167152
0.055840	0.168426
0.055860	0.169701
0.055880	0.169064
0.055900	0.169701
0.055920	0.169064
0.055940	0.170657
0.055960	0.170657
0.055980	0.170338
0.056000	0.171613
0.056020	0.170338
0.056040	0.170976
0.056060	0.172569
0.056080	0.172569
0.056100	0.173206
0.056120	0.173206
0.056140	0.174800
0.056160	0.175118
0.056180	0.175437
0.056200	0.176712
0.056220	0.176393
0.056240	0.175756
0.056260	0.176712
0.056280	0.176712
0.056300	0.177349
0.056320	0.178305
0.056340	0.177668
0.056360	0.179261
0.056380	0.177987
0.056400	0.179261
0.056420	0.180217
0.056440	0.180217
0.056460	0.180536
0.056480	0.182448
0.056500	0.182129
0.056520	0.182767
0.056540	0.182767
0.056560	0.184997
0.056580	0.183085
0.056600	0.184360
0.056620	0.184997
0.056640	0.184360
0.056660	0.184679
0.056680	0.185316
0.056700	0.186272
0.056720	0.186591
0.056740	0.186272
0.056760	0.187228
0.056780	0.187866
0.056800	0.188822
0.056820	0.189778
0.056840	0.189778
0.056860	0.189778
0.056880	0.188822
0.056900	0.190734
0.056920	0.190734
0.056940	0.190096
0.056960	0.191052
0.056980	0.191371
0.057000	0.190415
0.057020	0.192327
0.057040	0.191052
0.057060	0.192646
0.057080	0.191690
0.057100	0.192964
0.057120	0.193920
0.057140	0.194239
0.057160	0.195832
0.057180	0.195195
0.057200	0.194239
0.057220	0.196151
0.057240	0.195514
0.057260	0.195514
0.057280	0.195514
0.057300	0.196151
0.057320	0.196470
0.057340	0.195832
0.057360	0.196788
0.057380	0.197107
0.057400	0.197107
0.057420	0.197426
0.057440	0.198382
0.057460	0.198063
0.057480	0.199019
0.057500	0.199019
0.057520	0.200613
0.057540	0.199338
0.057560	0.199975
0.057580	0.200294
0.057600	0.199975
0.057620	0.199975
0.057640	0.199975
0.057660	0.201250
0.057680	0.200613
0.057700	0.200931
0.057720	0.201569
0.057740	0.201569
0.057760	0.203162
0.057780	0.204118
0.057800	0.203481
0.057820	0.203481
0.057840	0.203799
0.057860	0.204755
0.057880	0.204755
0.057900	0.204437
0.057920	0.205074
0.057940	0.204437
0.057960	0.202843
0.057980	0.206349
0.058000	0.205711
0.058020	0.206030
0.058040	0.206667
0.058060	0.206986
0.058080	0.207623
0.058100	0.206667
0.058120	0.209217
0.058140	0.208898
0.058160	0.207942
0.058180	0.209217
0.058200	0.209217
0.058220	0.208579
0.058240	0.209217
0.058260	0.209217
0.058280	0.209854
0.058300	0.208898
0.058320	0.210173
0.058340	0.210492
0.058360	0.210810
0.058380	0.212085
0.058400	0.212085
0.058420	0.211448
0.058440	0.212404
0.058460	0.212722
0.058480	0.214634
0.058500	0.213041
0.058520	0.213360
0.058540	0.213360
0.058560	0.213041
0.058580	0.213041
0.058600	0.213997
0.058620	0.214316
0.058640	0.213997
0.058660	0.214316
0.058680	0.214953
0.058700	0.213997
0.058720	0.215272
0.058740	0.216228
0.058760	0.215909
0.058780	0.216865
0.058800	0.216546
0.058820	0.217184
0.058840	0.217502
0.058860	0.217184
0.058880	0.216865
0.058900	0.216546
0.058920	0.216228
0.058940	0.217502
0.058960	0.217184
0.058980	0.218140
0.059000	0.217821
0.059020	0.219414
0.059040	0.219414
0.059060	0.218777
0.059080	0.220052
0.059100	0.219414
0.059120	0.219733
0.059140	0.219733
0.059160	0.219733
0.059180	0.221008
0.059200	0.220370
0.059220	0.220052
0.059240	0.220370
0.059260	0.219733
0.059280	0.220689
0.059300	0.221008
0.059320	0.221008
0.059340	0.221645
0.059360	0.221645
0.059380	0.222283
0.059400	0.221645
0.059420	0.222920
0.059440	0.223239
0.059460	0.222283
0.059480	0.222283
0.059500	0.222920
0.059520	0.222920
0.059540	0.222601
0.059560	0.222601
0.059580	0.222601
0.059600	0.222601
0.059620	0.221327
0.059640	0.223557
0.059660	0.222920
0.059680	0.223557
0.059700	0.223239
0.059720	0.224195
0.059740	0.223557
0.059760	0.223239
0.059780	0.223876
0.059800	0.224513
0.059820	0.223557
0.059840	0.224195
0.059860	0.223876
0.059880	0.221964
0.059900	0.223557
0.059920	0.223239
0.059940	0.223876
0.059960	0.222601
0.059980	0.223239
0.060000	0.224832
0.060020	0.223239
0.060040	0.224513
0.060060	0.224513
0.060080	0.223876
0.060100	0.224832
0.060120	0.224513
0.060140	0.225151
0.060160	0.224195
0.060180	0.223557
0.060200	0.224195
0.060220	0.223239
0.060240	0.223557
0.060260	0.223557
0.060280	0.223557
0.060300	0.222920
0.060320	0.223876
0.060340	0.224195
0.060360	0.223239
0.060380	0.223876
0.060400	0.225151
0.060420	0.223557
0.060440	0.223557
0.060460	0.222920
0.060480	0.223557
0.060500	0.223239
0.060520	0.222601
0.060540	0.222920
0.060560	0.222283
0.060580	0.221327
0.060600	0.222920
0.060620	0.222283
0.060640	0.221964
0.060660	0.222283
0.060680	0.223876
0.060700	0.223239
0.060720	0.221964
0.060740	0.223239
0.060760	0.221964
0.060780	0.221008
0.060800	0.222283
0.060820	0.221008
0.060840	0.220052
0.060860	0.221964
0.060880	0.221008
0.060900	0.220052
0.060920	0.218777
0.060940	0.221008
0.060960	0.220689
0.060980	0.220370
0.061000	0.220689
0.061020	0.220689
0.061040	0.219096
0.061060	0.219414
0.061080	0.219733
0.061100	0.219733
0.061120	0.218140
0.061140	0.218777
0.061160	0.218458
0.061180	0.217821
0.061200	0.217184
0.061220	0.217821
0.061240	0.217184
0.061260	0.217502
0.061280	0.217502
0.061300	0.217184
0.061320	0.216546
0.061340	0.217184
0.061360	0.217502
0.061380	0.215909
0.061400	0.216546
0.061420	0.215909
0.061440	0.215590
0.061460	0.215272
0.061480	0.213997
0.061500	0.214316
0.061520	0.212722
0.061540	0.211766
0.061560	0.213041
0.061580	0.210810
0.061600	0.208261
0.061620	0.205074
0.061640	0.201250
0.061660	0.199019
0.061680	0.197426
0.061700	0.199019
0.061720	0.199975
0.061740	0.200613
0.061760	0.202843
0.061780	0.201887
0.061800	0.198382
0.061820	0.197107
0.061840	0.194876
0.061860	0.195514
0.061880	0.195195
0.061900	0.197744
0.061920	0.199019
0.061940	0.199338
0.061960	0.197744
0.061980	0.195832
0.062000	0.193602
0.062020	0.192646
0.062040	0.193602
0.062060	0.196151
0.062080	0.196151
0.062100	0.196151
0.062120	0.194239
0.062140	0.193283
0.062160	0.191052
0.062180	0.190096
0.062200	0.190096
0.062220	0.191052
0.062240	0.191690
0.062260	0.192964
0.062280	0.191690
0.062300	0.191052
0.062320	0.189459
0.062340	0.187228
0.062360	0.186909
0.062380	0.187547
0.062400	0.189140
0.062420	0.189459
0.062440	0.188822
0.062460	0.188184
0.062480	0.185953
0.062500	0.183404
0.062520	0.183723
0.062540	0.183404
0.062560	0.184679
0.062580	0.184360
0.062600	0.184997
0.062620	0.184679
0.062640	0.183085
0.062660	0.181811
0.062680	0.181173
0.062700	0.179899
0.062720	0.180855
0.062740	0.180217
0.062760	0.181173
0.062780	0.180855
0.062800	0.179580
0.062820	0.178305
0.062840	0.176393
0.062860	0.175756
0.062880	0.175756
0.062900	0.176075
0.062920	0.176393
0.062940	0.176393
0.062960	0.175756
0.062980	0.174800
0.063000	0.173844
0.063020	0.174162
0.063040	0.172250
0.063060	0.172250
0.063080	0.171613
0.063100	0.172569
0.063120	0.171294
0.063140	0.170657
0.063160	0.169382
0.063180	0.169064
0.063200	0.167470
0.063220	0.168108
0.063240	0.167789
0.063260	0.168108
0.063280	0.169064
0.063300	0.167152
0.063320	0.166833
0.063340	0.164602
0.063360	0.164921
0.063380	0.163646
0.063400	0.163327
0.063420	0.163646
0.063440	0.163646
0.063460	0.160459
0.063480	0.163009
0.063500	0.161097
0.063520	0.160778
0.063540	0.158866
0.063560	0.159822
0.063580	0.159822
0.063600	0.158547
0.063620	0.159503
0.063640	0.159822
0.063660	0.156635
0.063680	0.157591
0.063700	0.156317
0.063720	0.155361
0.063740	0.155042
0.063760	0.154723
0.063780	0.156317
0.063800	0.152811
0.063820	0.152811
0.063840	0.152811
0.063860	0.151536
0.063880	0.150899
0.063900	0.151855
0.063920	0.151218
0.063940	0.150899
0.063960	0.151218
0.063980	0.151536
0.064000	0.148350
0.064020	0.148987
0.064040	0.147712
0.064060	0.147075
0.064080	0.146119
0.064100	0.146438
0.064120	0.146756
0.064140	0.145163
0.064160	0.143888
0.064180	0.144207
0.064200	0.143570
0.064220	0.142932
0.064240	0.143570
0.064260	0.142614
0.064280	0.142614
0.064300	0.141658
0.064320	0.141658
0.064340	0.141658
0.064360	0.138789
0.064380	0.140064
0.064400	0.138471
0.064420	0.136877
0.064440	0.138152
0.064460	0.136877
0.064480	0.137196
0.064500	0.135284
0.064520	0.135921
0.064540	0.135921
0.064560	0.134328
0.064580	0.134647
0.064600	0.134965
0.064620	0.133372
0.064640	0.133691
0.064660	0.133053
0.064680	0.132735
0.064700	0.131460
0.064720	0.130504
0.064740	0.130185
0.064760	0.128592
0.064780	0.129548
0.064800	0.129229
0.064820	0.128910
0.064840	0.128273
0.064860	0.128273
0.064880	0.126680
0.064900	0.126042
0.064920	0.126361
0.064940	0.127317
0.064960	0.125405
0.064980	0.125086
0.065000	0.124768
0.065020	0.122856
0.065040	0.122537
0.065060	0.123174
0.065080	0.121900
0.065100	0.120625
0.065120	0.119669
0.065140	0.121262
0.065160	0.120306
0.065180	0.120306
0.065200	0.119669
0.065220	0.118713
0.065240	0.118394
0.065260	0.117757
0.065280	0.118075
0.065300	0.117438
0.065320	0.115526
0.065340	0.116482
0.065360	0.115207
0.065380	0.113614
0.065400	0.115207
0.065420	0.114251
0.065440	0.113933
0.065460	0.113295
0.065480	0.112658
0.065500	0.113295
0.065520	0.112021
0.065540	0.112021
0.065560	0.111702
0.065580	0.110109
0.065600	0.110427
0.065620	0.110427
0.065640	0.109471
0.065660	0.109153
0.065680	0.108834
0.065700	0.108515
0.065720	0.106284
0.065740	0.106922
0.065760	0.106922
0.065780	0.105966
0.065800	0.105647
0.065820	0.106284
0.065840	0.105647
0.065860	0.105328
0.065880	0.105647
0.065900	0.105966
0.065920	0.103735
0.065940	0.102779
0.065960	0.102460
0.065980	0.101823
0.066000	0.101823
0.066020	0.101186
0.066040	0.101504
0.066060	0.100867
0.066080	0.099274
0.066100	0.100230
0.066120	0.099274
0.066140	0.099274
0.066160	0.098955
0.066180	0.098636
0.066200	0.099274
0.066220	0.097362
0.066240	0.097680
0.066260	0.097043
0.066280	0.096087
0.066300	0.097043
0.066320	0.095131
0.066340	0.094175
0.066360	0.095449
0.066380	0.092900
0.066400	0.093856
0.066420	0.092263
0.066440	0.092900
0.066460	0.093219
0.066480	0.091944
0.066500	0.093219
0.066520	0.092900
0.066540	0.091944
0.066560	0.091625
0.066580	0.090669
0.066600	0.091625
0.066620	0.089713
0.066640	0.090032
0.066660	0.090032
0.066680	0.088120
0.066700	0.087801
0.066720	0.089076
0.066740	0.087483
0.066760	0.087801
0.066780	0.087164
0.066800	0.087164
0.066820	0.086845
0.066840	0.086527
0.066860	0.088120
0.066880	0.086208
0.066900	0.085571
0.066920	0.084614
0.066940	0.084614
0.066960	0.084296
0.066980	0.082702
0.067000	0.083658
0.067020	0.083340
0.067040	0.081109
0.067060	0.083021
0.067080	0.081109
0.067100	0.081746
0.067120	0.081746
0.067140	0.081428
0.067160	0.081428
0.067180	0.079834
0.067200	0.080790
0.067220	0.080153
0.067240	0.079197
0.067260	0.079516
0.067280	0.078560
0.067300	0.077285
0.067320	0.078878
0.067340	0.077604
0.067360	0.077922
0.067380	0.076010
0.067400	0.076966
0.067420	0.077604
0.067440	0.076329
0.067460	0.076648
0.067480	0.076648
0.067500	0.075373
0.067520	0.075692
0.067540	0.074736
0.067560	0.076648
0.067580	0.074417
0.067600	0.074417
0.067620	0.074098
0.067640	0.072823
0.067660	0.072823
0.067680	0.073461
0.067700	0.073461
0.067720	0.072505
0.067740	0.072505
0.067760	0.073142
0.067780	0.071230
0.067800	0.071867
0.067820	0.072823
0.067840	0.071549
0.067860	0.071549
0.067880	0.071230
0.067900	0.071230
0.067920	0.071230
0.067940	0.069955
0.067960	0.070274
0.067980	0.068362
0.068000	0.068043
0.068020	0.069637
0.068040	0.068681
0.068060	0.068999
0.068080	0.068681
0.068100	0.069318
0.068120	0.068362
0.068140	0.067406
0.068160	0.068681
0.068180	0.067087
0.068200	0.066450
0.068220	0.068043
0.068240	0.066769
0.068260	0.066131
0.068280	0.066450
0.068300	0.065813
0.068320	0.065494
0.068340	0.064538
0.068360	0.065175
0.068380	0.065494
0.068400	0.065175
0.068420	0.065175
0.068440	0.065175
0.068460	0.063901
0.068480	0.063901
0.068500	0.062945
0.068520	0.064857
0.068540	0.063263
0.068560	0.063263
0.068580	0.062945
0.068600	0.062626
0.068620	0.061351
0.068640	0.061989
0.068660	0.061670
0.068680	0.061670
0.068700	0.061670
0.068720	0.061670
0.068740	0.060714
0.068760	0.061670
0.068780	0.061989
0.068800	0.060714
0.068820	0.059758
0.068840	0.059758
0.068860	0.060076
0.068880	0.059758
0.068900	0.059439
0.068920	0.059120
0.068940	0.058483
0.068960	0.057527
0.068980	0.059120
0.069000	0.057527
0.069020	0.058483
0.069040	0.057846
0.069060	0.058802
0.069080	0.057527
0.069100	0.057208
0.069120	0.058164
0.069140	0.057208
0.069160	0.056252
0.069180	0.056890
0.069200	0.055296
0.069220	0.054978
0.069240	0.055615
0.069260	0.055296
0.069280	0.055296
0.069300	0.054340
0.069320	0.054659
0.069340	0.054978
0.069360	0.054340
0.069380	0.054978
0.069400	0.054659
0.069420	0.054659
0.069440	0.054659
0.069460	0.054340
0.069480	0.054659
0.069500	0.053384
0.069520	0.053384
0.069540	0.053066
0.069560	0.052110
0.069580	0.052110
0.069600	0.052428
0.069620	0.052747
0.069640	0.052110
0.069660	0.052110
0.069680	0.052110
0.069700	0.051472
0.069720	0.051791
0.069740	0.052110
0.069760	0.051154
0.069780	0.052110
0.069800	0.051154
0.069820	0.051472
0.069840	0.051154
0.069860	0.049879
0.069880	0.050835
0.069900	0.048923
0.069920	0.048285
0.069940	0.049879
0.069960	0.049560
0.069980	0.049560
0.070000	0.048604
0.070020	0.049241
0.070040	0.049241
0.070060	0.047967
0.070080	0.049241
0.070100	0.048604
0.070120	0.048604
0.070140	0.048285
0.070160	0.047329
0.070180	0.047011
0.070200	0.047648
0.070220	0.047011
0.070240	0.047648
0.070260	0.046055
0.070280	0.047329
0.070300	0.047011
0.070320	0.046055
0.070340	0.047011
0.070360	0.047329
0.070380	0.046692
0.070400	0.045736
0.070420	0.045736
0.070440	0.047329
0.070460	0.045417
0.070480	0.045099
0.070500	0.045417
0.070520	0.045099
0.070540	0.043824
0.070560	0.044143
0.070580	0.044780
0.070600	0.044461
0.070620	0.044780
0.070640	0.044461
0.070660	0.044143
0.070680	0.044461
0.070700	0.045099
0.070720	0.044143
0.070740	0.044143
0.070760	0.043505
0.070780	0.043824
0.070800	0.043187
0.070820	0.042549
0.070840	0.043187
0.070860	0.041912
0.070880	0.040000
0.070900	0.041912
0.070920	0.041912
0.070940	0.041912
0.070960	0.041593
0.070980	0.041912
0.071000	0.042231
0.071020	0.041275
0.071040	0.042231
0.071060	0.042231
0.071080	0.040000
0.071100	0.040956
0.071120	0.041275
0.071140	0.040956
0.071160	0.040637
0.071180	0.040000
0.071200	0.040637
0.071220	0.038725
0.071240	0.039363
0.071260	0.039681
0.071280	0.039044
0.071300	0.039363
0.071320	0.040319
0.071340	0.040000
0.071360	0.039681
0.071380	0.039044
0.071400	0.040637
0.071420	0.038406
0.071440	0.038725
0.071460	0.039044
0.071480	0.037769
0.071500	0.038725
0.071520	0.038088
0.071540	0.037769
0.071560	0.037132
0.071580	0.036176
0.071600	0.037769
0.071620	0.036494
0.071640	0.037132
0.071660	0.038406
0.071680	0.037450
0.071700	0.037769
0.071720	0.037450
0.071740	0.037450
0.071760	0.036494
0.071780	0.035538
0.071800	0.036813
0.071820	0.036176
0.071840	0.035220
0.071860	0.036176
0.071880	0.035857
0.071900	0.036813
0.071920	0.035220
0.071940	0.035857
0.071960	0.036176
0.071980	0.035538
0.072000	0.036176
0.072020	0.036176
0.072040	0.035857
0.072060	0.035857
0.072080	0.035220
0.072100	0.035538
0.072120	0.034901
0.072140	0.034901
0.072160	0.034901
0.072180	0.033945
0.072200	0.035220
0.072220	0.034582
0.072240	0.034264
0.072260	0.034901
0.072280	0.035220
0.072300	0.034264
0.072320	0.034582
0.072340	0.034901
0.072360	0.036176
0.072380	0.034264
0.072400	0.033945
0.072420	0.034264
0.072440	0.032989
0.072460	0.033945
0.072480	0.033626
0.072500	0.033945
0.072520	0.033626
0.072540	0.033626
0.072560	0.033626
0.072580	0.032989
0.072600	0.034264
0.072620	0.034264
0.072640	0.033308
0.072660	0.033308
0.072680	0.033308
0.072700	0.033945
0.072720	0.033626
0.072740	0.032989
0.072760	0.032989
0.072780	0.032352
0.072800	0.030440
0.072820	0.033308
0.072840	0.031077
0.072860	0.032352
0.072880	0.031396
0.072900	0.032033
0.072920	0.032033
0.072940	0.031714
0.072960	0.032352
0.072980	0.032352
0.073000	0.031714
0.073020	0.032033
0.073040	0.032033
0.073060	0.031396
0.073080	0.031396
0.073100	0.031396
0.073120	0.031396
0.073140	0.029802
0.073160	0.030758
0.073180	0.031714
0.073200	0.030440
0.073220	0.030758
0.073240	0.031396
0.073260	0.030440
0.073280	0.030758
0.073300	0.031396
0.073320	0.031714
0.073340	0.029802
0.073360	0.029802
0.073380	0.030121
0.073400	0.029165
0.073420	0.029484
0.073440	0.029802
0.073460	0.029484
0.073480	0.028846
0.073500	0.028528
0.073520	0.029484
0.073540	0.029802
0.073560	0.029802
0.073580	0.030758
0.073600	0.030121
0.073620	0.030440
0.073640	0.028528
0.073660	0.030440
0.073680	0.028846
0.073700	0.029165
0.073720	0.029802
0.073740	0.028846
0.073760	0.027890
0.073780	0.029802
0.073800	0.027890
0.073820	0.028846
0.073840	0.028528
0.073860	0.029165
0.073880	0.029484
0.073900	0.028528
0.073920	0.029484
0.073940	0.029484
0.073960	0.028209
0.073980	0.028846
0.074000	0.028528
0.074020	0.027571
0.074040	0.028528
0.074060	0.028209
0.074080	0.028528
0.074100	0.027253
0.074120	0.027571
0.074140	0.028209
0.074160	0.027253
0.074180	0.028209
0.074200	0.029165
0.074220	0.027890
0.074240	0.027890
0.074260	0.028209
0.074280	0.029802
0.074300	0.027571
0.074320	0.026934
0.074340	0.028209
0.074360	0.026615
0.074380	0.026934
0.074400	0.027253
0.074420	0.027571
0.074440	0.027253
0.074460	0.027571
0.074480	0.027253
0.074500	0.026297
0.074520	0.026297
0.074540	0.028209
0.074560	0.027890
0.074580	0.027253
0.074600	0.026615
0.074620	0.026934
0.074640	0.026615
0.074660	0.025978
0.074680	0.026297
0.074700	0.025341
0.074720	0.025022
0.074740	0.025978
0.074760	0.025659
0.074780	0.025341
0.074800	0.025022
0.074820	0.025659
0.074840	0.026615
0.074860	0.024385
0.074880	0.025659
0.074900	0.026297
0.074920	0.024703
0.074940	0.025341
0.074960	0.025022
0.074980	0.024385
0.075000	0.024703
0.075020	0.025022
0.075040	0.024703
0.075060	0.023747
0.075080	0.024066
0.075100	0.024385
0.075120	0.024066
0.075140	0.025341
0.075160	0.025341
0.075180	0.024066
0.075200	0.024385
0.075220	0.024703
0.075240	0.025341
0.075260	0.024066
0.075280	0.024066
0.075300	0.024385
0.075320	0.023429
0.075340	0.023747
0.075360	0.023429
0.075380	0.024066
0.075400	0.022473
0.075420	0.023747
0.075440	0.024066
0.075460	0.023110
0.075480	0.024385
0.075500	0.024703
0.075520	0.023429
0.075540	0.023429
0.075560	0.023429
0.075580	0.024066
0.075600	0.023429
0.075620	0.022473
0.075640	0.023429
0.075660	0.022473
0.075680	0.021517
0.075700	0.023110
0.075720	0.021835
0.075740	0.021517
0.075760	0.022154
0.075780	0.023747
0.075800	0.023110
0.075820	0.022791
0.075840	0.023429
0.075860	0.022473
0.075880	0.021835
0.075900	0.023747
0.075920	0.022154
0.075940	0.021835
0.075960	0.022791
0.075980	0.022154
0.076000	0.021517
0.076020	0.020561
0.076040	0.022473
0.076060	0.021517
0.076080	0.021835
0.076100	0.022791
0.076120	0.022473
0.076140	0.021835
0.076160	0.021835
0.076180	0.022791
0.076200	0.022791
0.076220	0.021517
0.076240	0.021835
0.076260	0.021517
0.076280	0.020879
0.076300	0.021517
0.076320	0.020879
0.076340	0.021517
0.076360	0.020561
0.076380	0.020561
0.076400	0.021835
0.076420	0.020561
0.076440	0.021517
0.076460	0.021198
0.076480	0.021517
0.076500	0.021198
0.076520	0.021198
0.076540	0.021198
0.076560	0.020879
0.076580	0.020561
0.076600	0.020242
0.076620	0.020561
0.076640	0.019605
0.076660	0.020879
0.076680	0.019923
0.076700	0.020561
0.076720	0.019923
0.076740	0.020242
0.076760	0.020879
0.076780	0.019605
0.076800	0.020879
0.076820	0.020879
0.076840	0.020242
0.076860	0.020879
0.076880	0.019923
0.076900	0.019605
0.076920	0.019923
0.076940	0.019286
0.076960	0.019605
0.076980	0.018967
0.077000	0.019286
0.077020	0.019923
0.077040	0.019286
0.077060	0.019923
0.077080	0.019923
0.077100	0.019605
0.077120	0.018967
0.077140	0.018967
0.077160	0.020879
0.077180	0.019286
0.077200	0.019605
0.077220	0.018967
0.077240	0.018967
0.077260	0.019605
0.077280	0.017693
0.077300	0.019286
0.077320	0.018649
0.077340	0.018011
0.077360	0.019286
0.077380	0.018649
0.077400	0.018967
0.077420	0.019605
0.077440	0.018967
0.077460	0.019605
0.077480	0.018330
0.077500	0.018967
0.077520	0.020242
0.077540	0.018330
0.077560	0.018330
0.077580	0.018011
0.077600	0.017055
0.077620	0.018330
0.077640	0.017693
0.077660	0.018011
0.077680	0.017055
0.077700	0.017693
0.077720	0.018649
0.077740	0.017693
0.077760	0.018967
0.077780	0.018330
0.077800	0.018011
0.077820	0.018011
0.077840	0.018011
0.077860	0.019605
0.077880	0.017693
0.077900	0.018967
0.077920	0.017693
0.077940	0.017374
0.077960	0.017693
0.077980	0.018330
0.078000	0.017055
0.078020	0.017374
0.078040	0.018330
0.078060	0.018011
0.078080	0.017055
0.078100	0.018011
0.078120	0.019286
0.078140	0.017693
0.078160	0.017693
0.078180	0.017374
0.078200	0.017374
0.078220	0.017055
0.078240	0.017055
0.078260	0.018011
0.078280	0.017055
0.078300	0.015780
0.078320	0.017055
0.078340	0.016737
0.078360	0.017055
0.078380	0.017693
0.078400	0.017693
0.078420	0.017693
0.078440	0.016418
0.078460	0.018011
0.078480	0.017374
0.078500	0.016418
0.078520	0.017374
0.078540	0.016418
0.078560	0.015143
0.078580	0.016418
0.078600	0.017055
0.078620	0.016418
0.078640	0.015780
0.078660	0.016418
0.078680	0.017374
0.078700	0.016418
0.078720	0.017055
0.078740	0.017055
0.078760	0.016418
0.078780	0.016737
0.078800	0.017693
0.078820	0.017374
0.078840	0.015462
0.078860	0.016099
0.078880	0.016418
0.078900	0.014824
0.078920	0.015462
0.078940	0.016099
0.078960	0.015143
0.078980	0.015462
0.079000	0.016737
0.079020	0.015462
0.079040	0.015780
0.079060	0.016418
0.079080	0.018011
0.079100	0.015462
0.079120	0.015780
0.079140	0.015462
0.079160	0.015780
0.079180	0.015143
0.079200	0.015143
0.079220	0.016099
0.079240	0.015462
0.079260	0.014187
0.079280	0.016099
0.079300	0.014506
0.079320	0.015462
0.079340	0.016099
0.079360	0.016418
0.079380	0.015462
0.079400	0.015143
0.079420	0.016099
0.079440	0.015462
0.079460	0.014187
0.079480	0.015780
0.079500	0.014506
0.079520	0.012912
0.079540	0.014824
0.079560	0.014506
0.079580	0.014824
0.079600	0.014187
0.079620	0.014824
0.079640	0.015143
0.079660	0.014506
0.079680	0.015462
0.079700	0.015780
0.079720	0.014824
0.079740	0.015143
0.079760	0.015462
0.079780	0.015143
0.079800	0.014824
0.079820	0.014824
0.079840	0.014506
0.079860	0.013550
0.079880	0.013868
0.079900	0.014824
0.079920	0.013868
0.079940	0.014824
0.079960	0.015462
0.079980	0.014506
0.080000	0.015143
0.080020	0.014187
0.080040	0.016099
0.080060	0.014506
0.080080	0.014506
0.080100	0.015143
0.080120	0.014187
0.080140	0.013868
0.080160	0.014824
0.080180	0.014506
0.080200	0.013868
0.080220	0.013868
0.080240	0.014506
0.080260	0.013550
0.080280	0.014506
0.080300	0.015143
0.080320	0.014824
0.080340	0.013868
0.080360	0.014187
0.080380	0.014506
0.080400	0.014187
0.080420	0.013550
0.080440	0.014506
0.080460	0.013231
0.080480	0.013231
0.080500	0.014187
0.080520	0.013231
0.080540	0.013868
0.080560	0.013231
0.080580	0.013550
0.080600	0.013231
0.080620	0.013231
0.080640	0.014506
0.080660	0.013868
0.080680	0.012912
0.080700	0.013868
0.080720	0.012275
0.080740	0.013550
0.080760	0.013550
0.080780	0.012912
0.080800	0.013231
0.080820	0.011638
0.080840	0.012912
0.080860	0.013550
0.080880	0.012912
0.080900	0.014187
0.080920	0.013231
0.080940	0.013550
0.080960	0.013868
0.080980	0.013231
0.081000	0.014187
0.081020	0.013231
0.081040	0.013231
0.081060	0.013231
0.081080	0.012275
0.081100	0.012912
0.081120	0.012275
0.081140	0.013231
0.081160	0.012275
0.081180	0.012594
0.081200	0.012912
0.081220	0.012594
0.081240	0.012912
0.081260	0.013868
0.081280	0.013231
0.081300	0.012594
0.081320	0.012275
0.081340	0.013231
0.081360	0.012912
0.081380	0.012275
0.081400	0.012594
0.081420	0.011638
0.081440	0.011319
0.081460	0.013231
0.081480	0.012275
0.081500	0.013231
0.081520	0.011638
0.081540	0.012912
0.081560	0.012912
0.081580	0.012912
0.081600	0.013231
0.081620	0.013231
0.081640	0.012594
0.081660	0.013231
0.081680	0.012275
0.081700	0.012594
0.081720	0.012275
0.081740	0.011638
0.081760	0.012594
0.081780	0.011319
0.081800	0.012275
0.081820	0.012275
0.081840	0.011956
0.081860	0.012594
0.081880	0.012912
0.081900	0.012594
0.081920	0.013231
0.081940	0.012594
0.081960	0.013868
0.081980	0.011956
0.082000	0.011956
0.082020	0.012275
0.082040	0.011956
0.082060	0.011956
0.082080	0.011956
0.082100	0.012275
0.082120	0.012275
0.082140	0.011638
0.082160	0.012912
0.082180	0.011956
0.082200	0.012275
0.082220	0.013231
0.082240	0.012275
0.082260	0.011956
0.082280	0.012275
0.082300	0.011956
0.082320	0.012594
0.082340	0.011956
0.082360	0.012275
0.082380	0.011319
0.082400	0.010044
0.082420	0.012594
0.082440	0.011319
0.082460	0.011956
0.082480	0.011000
0.082500	0.012275
0.082520	0.012594
0.082540	0.011319
0.082560	0.012275
0.082580	0.012594
0.082600	0.011000
0.082620	0.012275
0.082640	0.011638
0.082660	0.011000
0.082680	0.011956
0.082700	0.010682
0.082720	0.011319
0.082740	0.010044
0.082760	0.011000
0.082780	0.011956
0.082800	0.011319
0.082820	0.011956
0.082840	0.012594
0.082860	0.011956
0.082880	0.012275
0.082900	0.011638
0.082920	0.012912
0.082940	0.011319
0.082960	0.011000
0.082980	0.011319
0.083000	0.010044
0.083020	0.010363
0.083040	0.011319
0.083060	0.011000
0.083080	0.010682
0.083100	0.011000
0.083120	0.011000
0.083140	0.010682
0.083160	0.010682
0.083180	0.012912
0.083200	0.011319
0.083220	0.010682
0.083240	0.010363
0.083260	0.010363
0.083280	0.011319
0.083300	0.010363
0.083320	0.011319
0.083340	0.010044
0.083360	0.009088
0.083380	0.011000
0.083400	0.010682
0.083420	0.010044
0.083440	0.010363
0.083460	0.011000
0.083480	0.010682
0.083500	0.011000
0.083520	0.012275
0.083540	0.011000
0.083560	0.010044
0.083580	0.011319
0.083600	0.010363
0.083620	0.008770
0.083640	0.011000
0.083660	0.010363
0.083680	0.010363
0.083700	0.009726
0.083720	0.010044
0.083740	0.010682
0.083760	0.010044
0.083780	0.011319
0.083800	0.011319
0.083820	0.010044
0.083840	0.010682
0.083860	0.011000
0.083880	0.011319
0.083900	0.010044
0.083920	0.010363
0.083940	0.010044
0.083960	0.009088
0.083980	0.009726
0.084000	0.010682
0.084020	0.009088
0.084040	0.010363
0.084060	0.010682
0.084080	0.010044
0.084100	0.010363
0.084120	0.011000
0.084140	0.011319
0.084160	0.010682
0.084180	0.010363
0.084200	0.010682
0.084220	0.010044
0.084240	0.010363
0.084260	0.009726
0.084280	0.009407
0.084300	0.009407
0.084320	0.008132
0.084340	0.010363
0.084360	0.009407
0.084380	0.009726
0.084400	0.010044
0.084420	0.009726
0.084440	0.010363
0.084460	0.010044
0.084480	0.010682
0.084500	0.010363
0.084520	0.009726
0.084540	0.009726
0.084560	0.008451
0.084580	0.007495
0.084600	0.009726
0.084620	0.009088
0.084640	0.009407
0.084660	0.008132
0.084680	0.008770
0.084700	0.010044
0.084720	0.009088
0.084740	0.010044
0.084760	0.010044
0.084780	0.008770
0.084800	0.009407
0.084820	0.009407
0.084840	0.009726
0.084860	0.010044
0.084880	0.008451
0.084900	0.009088
0.084920	0.008132
0.084940	0.008132
0.084960	0.009088
0.084980	0.008770
0.085000	0.009407
0.085020	0.009726
0.085040	0.008770
0.085060	0.010044
0.085080	0.010044
0.085100	0.010363
0.085120	0.009088
0.085140	0.009088
0.085160	0.009407
0.085180	0.009088
0.085200	0.009088
0.085220	0.008770
0.085240	0.008132
0.085260	0.009088
0.085280	0.008451
0.085300	0.009088
0.085320	0.008770
0.085340	0.009407
0.085360	0.009726
0.085380	0.009088
0.085400	0.008770
0.085420	0.008451
0.085440	0.009726
0.085460	0.010044
0.085480	0.008770
0.085500	0.009726
0.085520	0.007814
0.085540	0.007814
0.085560	0.008451
0.085580	0.007814
0.085600	0.008451
0.085620	0.007176
0.085640	0.007176
0.085660	0.009088
0.085680	0.008451
0.085700	0.009088
0.085720	0.009088
0.085740	0.008770
0.085760	0.009407
0.085780	0.008132
0.085800	0.010044
0.085820	0.008770
0.085840	0.008451
0.085860	0.009088
0.085880	0.007495
0.085900	0.008451
0.085920	0.008132
0.085940	0.008132
0.085960	0.008132
0.085980	0.008132
0.086000	0.008132
0.086020	0.008451
0.086040	0.009088
0.086060	0.010363
0.086080	0.009088
0.086100	0.008451
0.086120	0.008770
0.086140	0.008770
0.086160	0.008132
0.086180	0.007814
0.086200	0.008451
0.086220	0.007495
0.086240	0.006858
0.086260	0.008770
0.086280	0.007814
0.086300	0.007814
0.086320	0.009088
0.086340	0.008770
0.086360	0.008132
0.086380	0.008770
0.086400	0.009407
0.086420	0.009088
0.086440	0.008132
0.086460	0.008132
0.086480	0.008132
0.086500	0.006858
0.086520	0.008132
0.086540	0.008132
0.086560	0.007814
0.086580	0.006858
0.086600	0.007495
0.086620	0.008451
0.086640	0.007814
0.086660	0.008451
0.086680	0.009088
0.086700	0.008451
0.086720	0.008770
0.086740	0.008770
0.086760	0.009088
0.086780	0.007814
0.086800	0.007495
0.086820	0.007814
0.086840	0.006858
0.086860	0.007495
0.086880	0.008770
0.086900	0.007495
0.086920	0.007814
0.086940	0.007814
0.086960	0.008451
0.086980	0.007814
0.087000	0.008451
0.087020	0.010044
0.087040	0.008451
0.087060	0.007495
0.087080	0.008451
0.087100	0.007814
0.087120	0.007495
0.087140	0.007176
0.087160	0.007814
0.087180	0.007176
0.087200	0.006539
0.087220	0.008451
0.087240	0.007495
0.087260	0.007495
0.087280	0.008132
0.087300	0.008451
0.087320	0.007495
0.087340	0.007814
0.087360	0.008132
0.087380	0.008132
0.087400	0.007495
0.087420	0.007814
0.087440	0.007176
0.087460	0.005583
0.087480	0.007176
0.087500	0.007495
0.087520	0.007495
0.087540	0.006539
0.087560	0.007176
0.087580	0.007495
0.087600	0.007176
0.087620	0.007814
0.087640	0.007814
0.087660	0.006858
0.087680	0.008132
0.087700	0.007495
0.087720	0.008132
0.087740	0.007176
0.087760	0.006858
0.087780	0.007176
0.087800	0.005583
0.087820	0.006539
0.087840	0.007495
0.087860	0.006539
0.087880	0.007176
0.087900	0.007495
0.087920	0.007176
0.087940	0.007814
0.087960	0.007176
0.087980	0.009407
0.088000	0.007495
0.088020	0.007495
0.088040	0.007814
0.088060	0.006539
0.088080	0.007176
0.088100	0.007176
0.088120	0.006858
0.088140	0.006539
0.088160	0.006220
0.088180	0.007176
0.088200	0.006539
0.088220	0.007814
0.088240	0.008132
0.088260	0.007814
0.088280	0.007814
0.088300	0.007814
0.088320	0.007814
0.088340	0.007814
0.088360	0.006539
0.088380	0.007495
0.088400	0.006220
0.088420	0.005583
0.088440	0.007176
0.088460	0.005902
0.088480	0.006858
0.088500	0.005902
0.088520	0.006220
0.088540	0.007176
0.088560	0.007176
0.088580	0.007814
0.088600	0.007495
0.088620	0.006220
0.088640	0.006858
0.088660	0.005583
0.088680	0.006858
0.088700	0.006858
0.088720	0.006539
0.088740	0.006858
0.088760	0.005583
0.088780	0.005902
0.088800	0.006858
0.088820	0.005902
0.088840	0.007176
0.088860	0.006539
0.088880	0.006539
0.088900	0.007495
0.088920	0.007176
0.088940	0.008132
0.088960	0.006858
0.088980	0.006539
0.089000	0.006858
0.089020	0.005583
0.089040	0.006539
0.089060	0.006220
0.089080	0.005902
0.089100	0.006220
0.089120	0.004945
0.089140	0.006220
0.089160	0.006539
0.089180	0.006858
0.089200	0.007176
0.089220	0.006858
0.089240	0.006539
0.089260	0.006220
0.089280	0.006858
0.089300	0.007176
0.089320	0.005902
0.089340	0.006539
0.089360	0.005583
0.089380	0.004308
0.089400	0.006539
0.089420	0.005583
0.089440	0.005902
0.089460	0.005583
0.089480	0.005583
0.089500	0.006858
0.089520	0.006858
0.089540	0.006220
0.089560	0.006539
0.089580	0.005902
0.089600	0.006220
0.089620	0.005902
0.089640	0.005902
0.089660	0.004945
0.089680	0.004945
0.089700	0.005902
0.089720	0.005583
0.089740	0.005264
0.089760	0.005902
0.089780	0.005583
0.089800	0.005583
0.089820	0.006220
0.089840	0.006220
0.089860	0.006858
0.089880	0.005902
0.089900	0.006539
0.089920	0.006220
0.089940	0.004945
0.089960	0.005902
0.089980	0.004627
0.090000	0.005583
0.090020	0.006220
0.090040	0.005583
0.090060	0.004945
0.090080	0.005583
0.090100	0.005902
0.090120	0.006539
0.090140	0.005902
0.090160	0.007495
0.090180	0.006220
0.090200	0.005902
0.090220	0.006220
0.090240	0.006539
0.090260	0.006539
0.090280	0.005583
0.090300	0.006220
0.090320	0.005264
0.090340	0.004945
0.090360	0.005902
0.090380	0.004945
0.090400	0.005583
0.090420	0.005583
0.090440	0.005264
0.090460	0.006539
0.090480	0.006220
0.090500	0.006539
0.090520	0.007176
0.090540	0.005583
0.090560	0.005902
0.090580	0.006220
0.090600	0.005264
0.090620	0.005583
0.090640	0.004945
0.090660	0.005583
0.090680	0.003989
0.090700	0.003989
0.090720	0.005902
0.090740	0.004945
0.090760	0.005902
0.090780	0.006220
0.090800	0.004627
0.090820	0.005902
0.090840	0.005583
0.090860	0.006858
0.090880	0.005583
0.090900	0.005264
0.090920	0.006220
0.090940	0.004308
0.090960	0.004945
0.090980	0.005583
0.091000	0.004627
0.091020	0.004945
0.091040	0.005264
0.091060	0.005583
0.091080	0.005902
0.091100	0.005583
0.091120	0.006220
0.091140	0.005583
0.091160	0.004945
0.091180	0.004945
0.091200	0.005264
0.091220	0.006220
0.091240	0.005264
0.091260	0.004627
0.091280	0.004945
0.091300	0.003352
0.091320	0.005264
0.091340	0.004945
0.091360	0.004308
0.091380	0.004627
0.091400	0.004945
0.091420	0.005583
0.091440	0.004627
0.091460	0.005902
0.091480	0.005583
0.091500	0.004308
0.091520	0.005264
0.091540	0.004945
0.091560	0.003671
0.091580	0.004627
0.091600	0.004627
0.091620	0.004308
0.091640	0.003989
0.091660	0.003671
0.091680	0.004945
0.091700	0.004308
0.091720	0.005583
0.091740	0.005583
0.091760	0.004945
0.091780	0.005583
0.091800	0.005902
0.091820	0.006539
0.091840	0.005583
0.091860	0.004945
0.091880	0.004945
0.091900	0.004308
0.091920	0.004945
0.091940	0.004945
0.091960	0.004627
0.091980	0.004308
0.092000	0.005583
0.092020	0.004945
0.092040	0.004308
0.092060	0.004945
0.092080	0.007176
0.092100	0.005902
0.092120	0.003989
0.092140	0.004627
0.092160	0.005264
0.092180	0.005583
0.092200	0.005264
0.092220	0.004627
0.092240	0.004308
0.092260	0.003352
0.092280	0.005264
0.092300	0.005264
0.092320	0.004945
0.092340	0.004945
0.092360	0.004945
0.092380	0.005264
0.092400	0.004945
0.092420	0.005583
0.092440	0.004945
0.092460	0.004945
0.092480	0.005583
0.092500	0.004627
0.092520	0.003352
0.092540	0.004627
0.092560	0.003671
0.092580	0.003671
0.092600	0.003352
0.092620	0.003989
0.092640	0.004308
0.092660	0.003989
0.092680	0.005264
0.092700	0.004945
0.092720	0.003989
0.092740	0.005583
0.092760	0.005264
0.092780	0.005902
0.092800	0.004627
0.092820	0.003989
0.092840	0.004627
0.092860	0.003671
0.092880	0.003671
0.092900	0.004945
0.092920	0.003033
0.092940	0.004627
0.092960	0.004945
0.092980	0.004627
0.093000	0.003989
0.093020	0.004308
0.093040	0.005902
0.093060	0.004945
0.093080	0.003989
0.093100	0.004627
0.093120	0.004627
0.093140	0.004627
0.093160	0.003989
0.093180	0.004308
0.093200	0.003989
0.093220	0.003033
0.093240	0.003989
0.093260	0.003989
0.093280	0.004627
0.093300	0.004627
0.093320	0.004308
0.093340	0.003989
0.093360	0.004627
0.093380	0.004627
0.093400	0.004945
0.093420	0.003989
0.093440	0.004308
0.093460	0.003671
0.093480	0.003033
0.093500	0.004627
0.093520	0.003671
0.093540	0.003671
0.093560	0.002715
0.093580	0.002715
0.093600	0.003989
0.093620	0.003989
0.093640	0.003989
0.093660	0.004627
0.093680	0.003989
0.093700	0.004627
0.093720	0.003671
0.093740	0.004945
0.093760	0.003671
0.093780	0.003352
0.093800	0.003671
0.093820	0.003352
0.093840	0.003033
0.093860	0.004308
0.093880	0.003671
0.093900	0.003671
0.093920	0.003671
0.093940	0.003989
0.093960	0.004627
0.093980	0.004308
0.094000	0.005902
0.094020	0.004945
0.094040	0.004945
0.094060	0.003671
0.094080	0.003671
0.094100	0.003989
0.094120	0.004308
0.094140	0.003989
0.094160	0.003671
0.094180	0.002077
0.094200	0.003352
0.094220	0.003989
0.094240	0.004308
0.094260	0.003671
0.094280	0.004308
0.094300	0.004308
0.094320	0.003671
0.094340	0.004308
0.094360	0.004627
0.094380	0.003671
0.094400	0.003989
0.094420	0.003671
0.094440	0.003033
0.094460	0.003671
0.094480	0.003033
0.094500	0.003352
0.094520	0.002715
0.094540	0.003033
0.094560	0.004627
0.094580	0.003671
0.094600	0.003989
0.094620	0.003671
0.094640	0.003352
0.094660	0.004308
0.094680	0.004945
0.094700	0.004308
0.094720	0.003033
0.094740	0.002715
0.094760	0.003352
0.094780	0.002715
0.094800	0.002396
0.094820	0.004627
0.094840	0.003671
0.094860	0.003033
0.094880	0.003989
0.094900	0.003671
0.094920	0.003989
0.094940	0.003989
0.094960	0.004945
0.094980	0.003989
0.095000	0.003671
0.095020	0.003033
0.095040	0.003671
0.095060	0.003671
0.095080	0.003033
0.095100	0.003352
0.095120	0.003033
0.095140	0.002077
0.095160	0.003671
0.095180	0.003352
0.095200	0.003989
0.095220	0.003352
0.095240	0.003989
0.095260	0.003671
0.095280	0.003352
0.095300	0.004308
0.095320	0.003989
0.095340	0.002396
0.095360	0.003671
0.095380	0.003033
0.095400	0.002077
0.095420	0.003671
0.095440	0.003033
0.095460	0.003033
0.095480	0.001759
0.095500	0.002715
0.095520	0.003671
0.095540	0.002715
0.095560	0.004308
0.095580	0.003989
0.095600	0.002715
0.095620	0.003671
0.095640	0.003671
0.095660	0.003671
0.095680	0.003033
0.095700	0.003033
0.095720	0.003033
0.095740	0.002396
0.095760	0.002077
0.095780	0.003033
0.095800	0.003033
0.095820	0.003033
0.095840	0.003671
0.095860	0.002715
0.095880	0.003033
0.095900	0.003352
0.095920	0.004627
0.095940	0.003989
0.095960	0.003352
0.095980	0.003989
0.096000	0.003033
0.096020	0.002715
0.096040	0.003671
0.096060	0.003033
0.096080	0.002715
0.096100	0.002396
0.096120	0.003033
0.096140	0.002396
0.096160	0.003671
0.096180	0.003989
0.096200	0.003989
0.096220	0.003033
0.096240	0.003671
0.096260	0.003989
0.096280	0.003671
0.096300	0.002396
0.096320	0.003989
0.096340	0.002715
0.096360	0.001440
0.096380	0.003671
0.096400	0.002715
0.096420	0.003033
0.096440	0.002396
0.096460	0.002396
0.096480	0.003033
0.096500	0.002715
0.096520	0.004308
0.096540	0.003671
0.096560	0.003033
0.096580	0.003989
0.096600	0.003033
0.096620	0.003671
0.096640	0.003352
0.096660	0.003033
0.096680	0.002715
0.096700	0.001440
0.096720	0.001759
0.096740	0.002396
0.096760	0.002396
0.096780	0.003352
0.096800	0.003033
0.096820	0.002715
0.096840	0.003989
0.096860	0.003352
0.096880	0.004627
0.096900	0.003352
0.096920	0.002396
0.096940	0.003352
0.096960	0.002396
0.096980	0.003671
0.097000	0.002396
0.097020	0.002077
0.097040	0.001759
0.097060	0.001121
0.097080	0.002715
0.097100	0.002077
0.097120	0.002715
0.097140	0.003033
0.097160	0.002396
0.097180	0.003033
0.097200	0.003033
0.097220	0.003671
0.097240	0.003671
0.097260	0.002396
0.097280	0.003033
0.097300	0.002396
0.097320	0.001121
0.097340	0.002396
0.097360	0.001440
0.097380	0.003671
0.097400	0.001759
0.097420	0.001440
0.097440	0.003033
0.097460	0.002077
0.097480	0.003352
0.097500	0.002715
0.097520	0.002715
0.097540	0.003352
0.097560	0.002396
0.097580	0.003671
0.097600	0.003352
0.097620	0.001759
0.097640	0.002077
0.097660	0.002396
0.097680	0.002077
0.097700	0.002715
0.097720	0.002396
0.097740	0.002396
0.097760	0.003033
0.097780	0.002715
0.097800	0.003033
0.097820	0.002715
0.097840	0.004627
0.097860	0.003671
0.097880	0.002715
0.097900	0.002396
0.097920	0.002396
0.097940	0.003033
0.097960	0.002077
0.097980	0.002077
0.098000	0.003033
0.098020	0.001121
0.098040	0.003352
0.098060	0.003033
0.098080	0.002715
0.098100	0.003033
0.098120	0.002715
0.098140	0.003033
0.098160	0.003033
0.098180	0.003671
0.098200	0.003989
0.098220	0.002715
0.098240	0.002715
0.098260	0.002077
0.098280	0.000803
0.098300	0.002396
0.098320	0.002077
0.098340	0.002715
0.098360	0.001440
0.098380	0.001121
0.098400	0.003352
0.098420	0.002715
0.098440	0.002715
0.098460	0.002396
0.098480	0.002077
0.098500	0.002715
0.098520	0.002077
0.098540	0.003671
0.098560	0.002077
0.098580	0.002077
0.098600	0.002077
0.098620	0.002077
0.098640	0.002077
0.098660	0.002077
0.098680	0.001440
0.098700	0.002077
0.098720	0.002396
0.098740	0.002077
0.098760	0.002396
0.098780	0.003033
0.098800	0.004308
0.098820	0.002715
0.098840	0.001759
0.098860	0.002715
0.098880	0.002715
0.098900	0.002715
0.098920	0.002077
0.098940	0.002077
0.098960	0.001440
0.098980	0.001121
0.099000	0.002396
0.099020	0.002077
0.099040	0.002396
0.099060	0.003033
0.099080	0.002396
0.099100	0.002396
0.099120	0.002077
0.099140	0.003033
0.099160	0.003033
0.099180	0.001121
0.099200	0.002077
0.099220	0.001440
0.099240	0.001440
0.099260	0.002077
0.099280	0.001121
0.099300	0.001759
0.099320	0.000803
0.099340	0.001759
0.099360	0.002077
0.099380	0.001440
0.099400	0.002715
0.099420	0.002396
0.099440	0.001759
0.099460	0.003033
0.099480	0.003352
0.099500	0.003033
0.099520	0.002077
0.099540	0.001440
0.099560	0.002715
0.099580	0.000803
0.099600	0.002077
0.099620	0.002715
0.099640	0.001121
0.099660	0.002077
0.099680	0.001759
0.099700	0.001121
0.099720	0.001759
0.099740	0.002715
0.099760	0.003671
0.099780	0.003352
0.099800	0.002077
0.099820	0.002396
0.099840	0.002077
0.099860	0.003033
0.099880	0.002077
0.099900	0.001759
0.099920	0.002077
0.099940	-0.000153
0.099960	0.002077
0.099980	0.001759
0.100000	0.001440
0.100020	0.002077
0.100040	0.001440
0.100060	0.002396
0.100080	0.002077
0.100100	0.003033
0.100120	0.003989
0.100140	0.001759
0.100160	0.002715
0.100180	0.002077
0.100200	0.001759
0.100220	0.002396
0.100240	0.001440
0.100260	0.002396
0.100280	0.001121
0.100300	0.001121
0.100320	0.002077
0.100340	0.001440
0.100360	0.002077
0.100380	0.002715
0.100400	0.002077
0.100420	0.002396
0.100440	0.002077
0.100460	0.003033
0.100480	0.002715
0.100500	0.001440
0.100520	0.002077
0.100540	0.001121
0.100560	0.001121
0.100580	0.002077
0.100600	0.001121
0.100620	0.001759
0.100640	0.001759
0.100660	0.002077
0.100680	0.002077
0.100700	0.001759
0.100720	0.003352
0.100740	0.002396
0.100760	0.001759
0.100780	0.001759
0.100800	0.002077
0.100820	0.002396
0.100840	0.001759
0.100860	0.002396
0.100880	0.001759
0.100900	0.000165
0.100920	0.001440
0.100940	0.001121
0.100960	0.001440
0.100980	0.000803
0.101000	0.001121
0.101020	0.002715
0.101040	0.001759
0.101060	0.002715
0.101080	0.002715
0.101100	0.001121
0.101120	0.001759
0.101140	0.001759
0.101160	0.001759
0.101180	0.001440
0.101200	0.000803
0.101220	0.002077
0.101240	0.000803
0.101260	0.001121
0.101280	0.002396
0.101300	0.001121
0.101320	0.002077
0.101340	0.001759
0.101360	0.001440
0.101380	0.002396
0.101400	0.001121
0.101420	0.003352
0.101440	0.001440
0.101460	0.000803
0.101480	0.001440
0.101500	0.001440
0.101520	0.002077
0.101540	0.001121
0.101560	0.001121
0.101580	0.000803
0.101600	0.001121
0.101620	0.001759
0.101640	0.001440
0.101660	0.001440
0.101680	0.002077
0.101700	0.002396
0.101720	0.000803
0.101740	0.001759
0.101760	0.001759
0.101780	0.002077
0.101800	0.000484
0.101820	0.001440
0.101840	0.001121
0.101860	0.000165
0.101880	0.002077
0.101900	0.001121
0.101920	0.001440
0.101940	0.000484
0.101960	0.001440
0.101980	0.002396
0.102000	0.001759
0.102020	0.001759
0.102040	0.002715
0.102060	0.001440
0.102080	0.002396
0.102100	0.001440
0.102120	0.001440
0.102140	0.001759
0.102160	0.001759
0.102180	0.001440
0.102200	0.001121
0.102220	0.000803
0.102240	0.002396
0.102260	0.001121
0.102280	0.001440
0.102300	0.001759
0.102320	0.001759
0.102340	0.002077
0.102360	0.001759
0.102380	0.003671
0.102400	0.001759
0.102420	0.000484
0.102440	0.002077
0.102460	0.001121
0.102480	0.001121
0.102500	0.001440
0.102520	0.001121
0.102540	0.001121
0.102560	0.001121
0.102580	0.001759
0.102600	0.002077
0.102620	0.001440
0.102640	0.003033
0.102660	0.001759
0.102680	0.001759
0.102700	0.001440
0.102720	0.001759
0.102740	0.001121
0.102760	0.001121
0.102780	0.001759
0.102800	0.001121
0.102820	-0.000791
0.102840	0.001440
0.102860	0.000484
0.102880	0.001121
0.102900	0.001121
0.102920	0.001121
0.102940	0.001759
0.102960	0.001121
0.102980	0.001759
0.103000	0.002396
0.103020	0.000803
0.103040	0.002396
0.103060	0.001759
0.103080	0.001121
0.103100	0.001440
0.103120	0.000803
0.103140	0.001121
0.103160	-0.000153
0.103180	0.000484
0.103200	0.001121
0.103220	0.000484
0.103240	0.002715
0.103260	0.002077
0.103280	0.001440
0.103300	0.001440
0.103320	0.001759
0.103340	0.002396
0.103360	0.001440
0.103380	0.001759
0.103400	0.001759
0.103420	0.000165
0.103440	0.000484
0.103460	0.001121
0.103480	-0.000153
0.103500	0.000803
0.103520	0.001440
0.103540	0.001121
0.103560	0.001440
0.103580	0.001121
0.103600	0.003352
0.103620	0.001759
0.103640	0.001759
0.103660	0.001121
0.103680	0.001121
0.103700	0.001121
0.103720	0.000803
0.103740	0.001121
0.103760	0.000484
0.103780	0.000165
0.103800	0.001121
0.103820	0.000803
0.103840	0.001121
0.103860	0.001121
0.103880	0.000803
0.103900	0.002077
0.103920	0.001121
0.103940	0.001759
0.103960	0.001759
0.103980	0.001440
0.104000	0.001759
0.104020	0.001440
0.104040	0.000803
0.104060	0.001121
0.104080	0.001121
0.104100	0.000803
0.104120	0.001121
0.104140	0.000165
0.104160	0.000484
0.104180	0.000803
0.104200	0.001759
0.104220	0.001759
0.104240	0.001121
0.104260	0.002077
0.104280	0.001440
0.104300	0.002715
0.104320	0.001121
0.104340	0.000803
0.104360	0.001121
0.104380	0.000803
0.104400	0.000484
0.104420	0.001759
0.104440	0.000803
0.104460	0.000803
0.104480	0.000165
0.104500	0.001121
0.104520	0.001121
0.104540	0.001121
0.104560	0.002077
0.104580	0.001759
0.104600	0.001121
0.104620	0.000803
0.104640	0.001121
0.104660	0.001121
0.104680	0.001121
0.104700	0.001440
0.104720	0.001121
0.104740	-0.000472
0.104760	0.001121
0.104780	0.001121
0.104800	0.001121
0.104820	0.000484
0.104840	0.001121
0.104860	0.002077
0.104880	0.000803
0.104900	0.001440
0.104920	0.002077
0.104940	0.000803
0.104960	0.000803
0.104980	0.001440
0.105000	0.001121
0.105020	0.000484
0.105040	-0.000153
0.105060	0.000165
0.105080	-0.000472
0.105100	-0.000153
0.105120	0.001440
0.105140	0.000484
0.105160	0.001440
0.105180	0.001121
0.105200	0.000484
0.105220	0.001121
0.105240	0.000165
0.105260	0.003033
0.105280	0.001121
0.105300	0.000484
0.105320	0.000803
0.105340	-0.000153
0.105360	0.000484
0.105380	0.001121
0.105400	0.000165
0.105420	0.000165
0.105440	0.000165
0.105460	0.001121
0.105480	0.001121
0.105500	0.001440
0.105520	0.002077
0.105540	0.001121
0.105560	0.000484
0.105580	0.000484
0.105600	0.001121
0.105620	0.001121
0.105640	-0.000472
0.105660	0.000803
0.105680	0.000165
0.105700	-0.001428
0.105720	0.001121
0.105740	0.000484
0.105760	0.000803
0.105780	0.000484
0.105800	0.000803
0.105820	0.001440
0.105840	0.000484
0.105860	0.001440
0.105880	0.001440
0.105900	0.000484
0.105920	0.001121
0.105940	0.000803
0.105960	0.000165
0.105980	0.000484
0.106000	0.000165
0.106020	0.000165
0.106040	-0.000791
0.106060	0.000165
0.106080	0.001121
0.106100	-0.000791
0.106120	0.001121
0.106140	0.000803
0.106160	0.000803
0.106180	0.001121
0.106200	0.001121
0.106220	0.003033
0.106240	0.001121
0.106260	0.000484
0.106280	0.001121
0.106300	0.000803
0.106320	-0.000153
0.106340	0.001121
0.106360	0.000803
0.106380	-0.000472
0.106400	-0.000153
0.106420	0.000165
0.106440	0.000484
0.106460	0.001121
0.106480	0.001440
0.106500	0.001440
0.106520	0.000484
0.106540	0.001121
0.106560	0.001440
0.106580	0.001121
0.106600	-0.000153
0.106620	0.001121
0.106640	-0.000153
0.106660	-0.000791
0.106680	0.001121
0.106700	-0.000153
0.106720	0.000165
0.106740	0.000165
0.106760	0.000484
0.106780	0.001121
0.106800	0.000165
0.106820	0.001121
0.106840	0.000803
0.106860	-0.000472
0.106880	0.000803
0.106900	-0.000472
0.106920	0.000165
0.106940	0.000165
0.106960	-0.000791
0.106980	-0.000153
0.107000	-0.000472
0.107020	-0.000791
0.107040	0.001121
0.107060	-0.000791
0.107080	0.000803
0.107100	0.000484
0.107120	-0.000153
0.107140	0.001121
0.107160	0.000165
0.107180	0.001759
0.107200	0.000803
0.107220	-0.000472
0.107240	0.000484
0.107260	-0.000791
0.107280	-0.000472
0.107300	0.000484
0.107320	-0.000153
0.107340	-0.000153
0.107360	-0.000153
0.107380	0.000165
0.107400	-0.000153
0.107420	0.000484
0.107440	0.001440
0.107460	0.000484
0.107480	0.000803
0.107500	0.001121
0.107520	0.000484
0.107540	0.001121
0.107560	-0.000153
0.107580	0.000165
0.107600	0.000165
0.107620	-0.000791
0.107640	0.000803
0.107660	-0.000472
0.107680	0.000484
0.107700	-0.000791
0.107720	-0.000472
0.107740	0.000484
0.107760	0.000484
0.107780	0.000484
0.107800	0.001121
0.107820	-0.000153
0.107840	0.000484
0.107860	-0.000153
0.107880	-0.000153
0.107900	0.000165
0.107920	-0.000153
0.107940	-0.000153
0.107960	-0.000472
0.107980	-0.000791
0.108000	-0.000153
0.108020	-0.000153
0.108040	0.000165
0.108060	0.000803
0.108080	-0.000153
0.108100	0.000484
0.108120	0.000165
0.108140	0.001440
0.108160	0.000803
0.108180	-0.000472
0.108200	-0.000153
0.108220	-0.000791
0.108240	-0.000153
0.108260	-0.000791
0.108280	-0.000791
0.108300	-0.000791
0.108320	-0.000791
0.108340	0.001121
0.108360	0.000165
0.108380	0.000484
0.108400	0.000484
0.108420	0.000484
0.108440	0.000165
0.108460	-0.000472
0.108480	-0.000472
0.108500	-0.000153
0.108520	-0.000153
0.108540	-0.000472
0.108560	-0.001109
0.108580	-0.001747
0.108600	-0.000153
0.108620	-0.000791
0.108640	-0.000472
0.108660	-0.000153
0.108680	-0.000472
0.108700	-0.000153
0.108720	-0.000153
0.108740	0.000165
0.108760	0.000803
0.108780	-0.000153
0.108800	0.000165
0.108820	-0.000153
0.108840	-0.001109
0.108860	-0.000153
0.108880	-0.001109
0.108900	-0.000472
0.108920	-0.002384
0.108940	-0.001428
0.108960	-0.000472
0.108980	-0.000472
0.109000	0.000165
0.109020	0.000484
0.109040	-0.000153
0.109060	0.001121
0.109080	-0.001109
0.109100	0.001121
0.109120	-0.000791
0.109140	-0.001109
0.109160	-0.000791
0.109180	-0.001428
0.109200	-0.001428
0.109220	-0.001428
0.109240	-0.001428
0.109260	-0.001428
0.109280	-0.001747
0.109300	-0.000791
0.109320	-0.000153
0.109340	-0.000791
0.109360	0.000803
0.109380	-0.000153
0.109400	-0.001109
0.109420	-0.000791
0.109440	-0.000791
0.109460	-0.000153
0.109480	-0.001109
0.109500	-0.000791
0.109520	-0.001428
0.109540	-0.002703
0.109560	-0.000791
0.109580	-0.000791
0.109600	-0.001109
0.109620	-0.001428
0.109640	-0.001428
0.109660	-0.000472
0.109680	-0.001747
0.109700	0.000484
0.109720	-0.000153
0.109740	-0.001428
0.109760	-0.000472
0.109780	-0.001428
0.109800	-0.001428
0.109820	-0.001428
0.109840	-0.002065
0.109860	-0.001428
0.109880	-0.001747
0.109900	-0.002384
0.109920	-0.000791
0.109940	-0.001109
0.109960	-0.001109
0.109980	-0.001109
0.110000	-0.001428
0.110020	-0.000791
0.110040	-0.000791
0.110060	0.000484
0.110080	-0.000791
0.110100	-0.001109
0.110120	-0.000472
0.110140	-0.001428
0.110160	-0.001109
0.110180	-0.001109
0.110200	-0.001428
0.110220	-0.001747
0.110240	-0.001747
0.110260	-0.001428
0.110280	-0.001428
0.110300	-0.000791
0.110320	0.000165
0.110340	-0.000791
0.110360	-0.001109
0.110380	-0.000472
0.110400	-0.000791
0.110420	-0.000791
0.110440	-0.001747
0.110460	-0.000791
0.110480	-0.001747
0.110500	-0.003021
0.110520	-0.001428
0.110540	-0.001747
0.110560	-0.001428
0.110580	-0.002384
0.110600	-0.001428
0.110620	-0.001109
0.110640	-0.001109
0.110660	-0.001109
0.110680	-0.001428
0.110700	-0.001428
0.110720	-0.000153
0.110740	-0.001428
0.110760	-0.001428
0.110780	-0.001747
0.110800	-0.002065
0.110820	-0.002384
0.110840	-0.003340
0.110860	-0.003021
0.110880	-0.001109
0.110900	-0.002703
0.110920	-0.002065
0.110940	-0.001109
0.110960	-0.002384
0.110980	-0.001428
0.111000	-0.001109
0.111020	-0.000472
0.111040	-0.001747
0.111060	-0.001747
0.111080	-0.001747
0.111100	-0.002384
0.111120	-0.002065
0.111140	-0.002065
0.111160	-0.002384
0.111180	-0.002703
0.111200	-0.003659
0.111220	-0.002384
0.111240	-0.003340
0.111260	-0.001747
0.111280	-0.002703
0.111300	-0.002065
0.111320	-0.002384
0.111340	-0.002703
0.111360	-0.002703
0.111380	-0.003021
0.111400	-0.002703
0.111420	-0.002703
0.111440	-0.003659
0.111460	-0.004296
0.111480	-0.002065
0.111500	-0.002703
0.111520	-0.002703
0.111540	-0.002703
0.111560	-0.003340
0.111580	-0.002384
0.111600	-0.001747
0.111620	-0.002065
0.111640	-0.002065
0.111660	-0.003340
0.111680	-0.002384
0.111700	-0.003021
0.111720	-0.002703
0.111740	-0.003659
0.111760	-0.003977
0.111780	-0.003659
0.111800	-0.003977
0.111820	-0.003977
0.111840	-0.003659
0.111860	-0.002703
0.111880	-0.002703
0.111900	-0.003021
0.111920	-0.002703
0.111940	-0.002384
0.111960	-0.002384
0.111980	-0.001428
0.112000	-0.002703
0.112020	-0.003340
0.112040	-0.003977
0.112060	-0.003659
0.112080	-0.003340
0.112100	-0.003977
0.112120	-0.003659
0.112140	-0.003659
0.112160	-0.004615
0.112180	-0.003659
0.112200	-0.003659
0.112220	-0.003340
0.112240	-0.003340
0.112260	-0.003340
0.112280	-0.003021
0.112300	-0.003659
0.112320	-0.003021
0.112340	-0.002703
0.112360	-0.003977
0.112380	-0.003340
0.112400	-0.004296
0.112420	-0.005252
0.112440	-0.003977
0.112460	-0.004615
0.112480	-0.003659
0.112500	-0.004933
0.112520	-0.004296
0.112540	-0.003340
0.112560	-0.004296
0.112580	-0.003659
0.112600	-0.003659
0.112620	-0.004615
0.112640	-0.003659
0.112660	-0.003659
0.112680	-0.003977
0.112700	-0.004615
0.112720	-0.004933
0.112740	-0.004933
0.112760	-0.005571
0.112780	-0.004933
0.112800	-0.003977
0.112820	-0.004615
0.112840	-0.004615
0.112860	-0.003977
0.112880	-0.004615
0.112900	-0.003977
0.112920	-0.004615
0.112940	-0.003340
0.112960	-0.004296
0.112980	-0.005252
0.113000	-0.004615
0.113020	-0.004933
0.113040	-0.004615
0.113060	-0.005252
0.113080	-0.005252
0.113100	-0.005889
0.113120	-0.005571
0.113140	-0.005252
0.113160	-0.004933
0.113180	-0.004933
0.113200	-0.004296
0.113220	-0.004933
0.113240	-0.005252
0.113260	-0.005252
0.113280	-0.004933
0.113300	-0.005252
0.113320	-0.005571
0.113340	-0.005252
0.113360	-0.005889
0.113380	-0.007164
0.113400	-0.004933
0.113420	-0.006208
0.113440	-0.005571
0.113460	-0.006208
0.113480	-0.006208
0.113500	-0.005571
0.113520	-0.006527
0.113540	-0.004933
0.113560	-0.004933
0.113580	-0.006208
0.113600	-0.005252
0.113620	-0.005889
0.113640	-0.006846
0.113660	-0.005889
0.113680	-0.007164
0.113700	-0.005571
0.113720	-0.007164
0.113740	-0.007164
0.113760	-0.005889
0.113780	-0.006527
0.113800	-0.005571
0.113820	-0.006527
0.113840	-0.006846
0.113860	-0.006208
0.113880	-0.006527
0.113900	-0.004933
0.113920	-0.006208
0.113940	-0.006527
0.113960	-0.005889
0.113980	-0.007164
0.114000	-0.007164
0.114020	-0.006846
0.114040	-0.007164
0.114060	-0.007164
0.114080	-0.007483
0.114100	-0.007483
0.114120	-0.007483
0.114140	-0.006846
0.114160	-0.005889
0.114180	-0.006846
0.114200	-0.007483
0.114220	-0.007164
0.114240	-0.007164
0.114260	-0.007483
0.114280	-0.007802
0.114300	-0.007164
0.114320	-0.008758
0.114340	-0.009076
0.114360	-0.007483
0.114380	-0.008439
0.114400	-0.007802
0.114420	-0.007483
0.114440	-0.008439
0.114460	-0.007483
0.114480	-0.008439
0.114500	-0.007164
0.114520	-0.008120
0.114540	-0.008120
0.114560	-0.007802
0.114580	-0.009395
0.114600	-0.009714
0.114620	-0.008439
0.114640	-0.008758
0.114660	-0.008758
0.114680	-0.010032
0.114700	-0.009395
0.114720	-0.009076
0.114740	-0.009076
0.114760	-0.008439
0.114780	-0.009076
0.114800	-0.009395
0.114820	-0.008758
0.114840	-0.008758
0.114860	-0.008120
0.114880	-0.009395
0.114900	-0.009395
0.114920	-0.010032
0.114940	-0.010351
0.114960	-0.010351
0.114980	-0.009714
0.115000	-0.010032
0.115020	-0.010032
0.115040	-0.010351
0.115060	-0.010670
0.115080	-0.009395
0.115100	-0.010032
0.115120	-0.008120
0.115140	-0.010351
0.115160	-0.010032
0.115180	-0.010351
0.115200	-0.010351
0.115220	-0.010032
0.115240	-0.010988
0.115260	-0.010988
0.115280	-0.011307
0.115300	-0.011944
0.115320	-0.010351
0.115340	-0.011307
0.115360	-0.010670
0.115380	-0.010988
0.115400	-0.010032
0.115420	-0.010351
0.115440	-0.010670
0.115460	-0.011307
0.115480	-0.009395
0.115500	-0.010988
0.115520	-0.010670
0.115540	-0.010988
0.115560	-0.011626
0.115580	-0.010351
0.115600	-0.011307
0.115620	-0.011307
0.115640	-0.011626
0.115660	-0.011944
0.115680	-0.010351
0.115700	-0.010670
0.115720	-0.010351
0.115740	-0.010032
0.115760	-0.010988
0.115780	-0.010032
0.115800	-0.010351
0.115820	-0.009395
0.115840	-0.010670
0.115860	-0.010988
0.115880	-0.010988
0.115900	-0.011626
0.115920	-0.011626
0.115940	-0.010670
0.115960	-0.011307
0.115980	-0.010351
0.116000	-0.011307
0.116020	-0.010351
0.116040	-0.010351
0.116060	-0.010670
0.116080	-0.009395
0.116100	-0.009714
0.116120	-0.010670
0.116140	-0.009714
0.116160	-0.009714
0.116180	-0.009714
0.116200	-0.010988
0.116220	-0.010351
0.116240	-0.011626
0.116260	-0.011626
0.116280	-0.010032
0.116300	-0.011307
0.116320	-0.010351
0.116340	-0.010351
0.116360	-0.010988
0.116380	-0.010032
0.116400	-0.010351
0.116420	-0.010032
0.116440	-0.009076
0.116460	-0.010670
0.116480	-0.010032
0.116500	-0.010670
0.116520	-0.011626
0.116540	-0.010351
0.116560	-0.011307
0.116580	-0.010351
0.116600	-0.010670
0.116620	-0.011307
0.116640	-0.010032
0.116660	-0.010988
0.116680	-0.010670
0.116700	-0.010351
0.116720	-0.010988
0.116740	-0.010032
0.116760	-0.009714
0.116780	-0.009395
0.116800	-0.010351
0.116820	-0.011307
0.116840	-0.010670
0.116860	-0.011307
0.116880	-0.010670
0.116900	-0.010351
0.116920	-0.010351
0.116940	-0.009714
0.116960	-0.010351
0.116980	-0.010032
0.117000	-0.010351
0.117020	-0.009714
0.117040	-0.008439
0.117060	-0.009395
0.117080	-0.010670
0.117100	-0.010351
0.117120	-0.010032
0.117140	-0.009714
0.117160	-0.010670
0.117180	-0.010351
0.117200	-0.010988
0.117220	-0.011944
0.117240	-0.010032
0.117260	-0.010670
0.117280	-0.010988
0.117300	-0.009714
0.117320	-0.010032
0.117340	-0.010351
0.117360	-0.010351
0.117380	-0.009714
0.117400	-0.010351
0.117420	-0.010988
0.117440	-0.009076
0.117460	-0.010670
0.117480	-0.011307
0.117500	-0.010670
0.117520	-0.011626
0.117540	-0.010670
0.117560	-0.011944
0.117580	-0.011626
0.117600	-0.010351
0.117620	-0.010988
0.117640	-0.009395
0.117660	-0.010351
0.117680	-0.011307
0.117700	-0.010032
0.117720	-0.010351
0.117740	-0.009076
0.117760	-0.010988
0.117780	-0.010670
0.117800	-0.010351
0.117820	-0.010988
0.117840	-0.011307
0.117860	-0.010988
0.117880	-0.010670
0.117900	-0.010988
0.117920	-0.011307
0.117940	-0.010670
0.117960	-0.010670
0.117980	-0.010351
0.118000	-0.008758
0.118020	-0.010351
0.118040	-0.010351
0.118060	-0.010032
0.118080	-0.010351
0.118100	-0.010670
0.118120	-0.010988
0.118140	-0.010988
0.118160	-0.011307
0.118180	-0.011944
0.118200	-0.010032
0.118220	-0.010351
0.118240	-0.010351
0.118260	-0.010032
0.118280	-0.010351
0.118300	-0.010351
0.118320	-0.010032
0.118340	-0.010032
0.118360	-0.009714
0.118380	-0.010670
0.118400	-0.009395
0.118420	-0.010670
0.118440	-0.011626
0.118460	-0.010351
0.118480	-0.011307
0.118500	-0.010351
0.118520	-0.011626
0.118540	-0.011307
0.118560	-0.010032
0.118580	-0.010351
0.118600	-0.009714
0.118620	-0.009714
0.118640	-0.010351
0.118660	-0.009395
0.118680	-0.010032
0.118700	-0.009076
0.118720	-0.010351
0.118740	-0.010988
0.118760	-0.010351
0.118780	-0.010988
0.118800	-0.010670
0.118820	-0.009714
0.118840	-0.010670
0.118860	-0.009714
0.118880	-0.010351
0.118900	-0.010351
0.118920	-0.010351
0.118940	-0.009714
0.118960	-0.009076
0.118980	-0.009395
0.119000	-0.010032
0.119020	-0.009714
0.119040	-0.010351
0.119060	-0.010351
0.119080	-0.011307
0.119100	-0.011307
0.119120	-0.010988
0.119140	-0.011944
0.119160	-0.010032
0.119180	-0.010670
0.119200	-0.009714
0.119220	-0.010032
0.119240	-0.010351
0.119260	-0.009714
0.119280	-0.009714
0.119300	-0.009714
0.119320	-0.009076
0.119340	-0.010032
0.119360	-0.010351
0.119380	-0.010670
0.119400	-0.011307
0.119420	-0.010351
0.119440	-0.010670
0.119460	-0.010670
0.119480	-0.011626
0.119500	-0.011944
0.119520	-0.010351
0.119540	-0.010670
0.119560	-0.010032
0.119580	-0.010351
0.119600	-0.010670
0.119620	-0.010032
0.119640	-0.010351
0.119660	-0.009395
0.119680	-0.010670
0.119700	-0.010670
0.119720	-0.010351
0.119740	-0.010670
0.119760	-0.010032
0.119780	-0.010670
0.119800	-0.010351
0.119820	-0.011307
0.119840	-0.010670
0.119860	-0.010032
0.119880	-0.009714
0.119900	-0.010670
0.119920	-0.008439
0.119940	-0.009714
0.119960	-0.010351
0.119980	-0.010032
0.120000	-0.009395
0.120020	-0.009714
0.120040	-0.010988
0.120060	-0.010351
0.120080	-0.010351
0.120100	-0.011944
0.120120	-0.010351
0.120140	-0.010351
0.120160	-0.010351
0.120180	-0.010351
0.120200	-0.010351
0.120220	-0.009714
0.120240	-0.010351
0.120260	-0.009076
0.120280	-0.009076
0.120300	-0.010351
0.120320	-0.010032
0.120340	-0.010351
0.120360	-0.010988
0.120380	-0.010351
0.120400	-0.010351
0.120420	-0.010032
0.120440	-0.011307
0.120460	-0.010351
0.120480	-0.009714
0.120500	-0.010670
0.120520	-0.010032
0.120540	-0.009395
0.120560	-0.009714
0.120580	-0.009714
0.120600	-0.010032
0.120620	-0.009076
0.120640	-0.010351
0.120660	-0.010670
0.120680	-0.009714
0.120700	-0.011307
0.120720	-0.011307
0.120740	-0.009395
0.120760	-0.010670
0.120780	-0.009714
0.120800	-0.009714
0.120820	-0.009714
0.120840	-0.009714
0.120860	-0.009714
0.120880	-0.008758
0.120900	-0.010032
0.120920	-0.010032
0.120940	-0.009714
0.120960	-0.010670
0.120980	-0.010351
0.121000	-0.010351
0.121020	-0.010351
0.121040	-0.010670
0.121060	-0.011307
0.121080	-0.010032
0.121100	-0.010670
0.121120	-0.010032
0.121140	-0.009395
0.121160	-0.009714
0.121180	-0.010032
0.121200	-0.010032
0.121220	-0.010032
0.121240	-0.009076
0.121260	-0.010988
0.121280	-0.010670
0.121300	-0.010670
0.121320	-0.012582
0.121340	-0.010670
0.121360	-0.010670
0.121380	-0.010032
0.121400	-0.010988
0.121420	-0.010351
0.121440	-0.009395
0.121460	-0.011307
0.121480	-0.008439
0.121500	-0.009714
0.121520	-0.010351
0.121540	-0.009395
0.121560	-0.010032
0.121580	-0.010032
0.121600	-0.010351
0.121620	-0.010351
0.121640	-0.010032
0.121660	-0.011944
0.121680	-0.010988
0.121700	-0.010032
0.121720	-0.011626
0.121740	-0.010032
0.121760	-0.009395
0.121780	-0.010032
0.121800	-0.010032
0.121820	-0.009714
0.121840	-0.008439
0.121860	-0.010032
0.121880	-0.010351
0.121900	-0.010032
0.121920	-0.010351
0.121940	-0.010032
0.121960	-0.010351
0.121980	-0.010670
0.122000	-0.010988
0.122020	-0.010351
0.122040	-0.010032
0.122060	-0.010988
0.122080	-0.009714
0.122100	-0.009076
0.122120	-0.009714
0.122140	-0.009076
0.122160	-0.010032
0.122180	-0.009076
0.122200	-0.010032
0.122220	-0.010032
0.122240	-0.009714
0.122260	-0.010670
0.122280	-0.011626
0.122300	-0.009076
0.122320	-0.010351
0.122340	-0.010351
0.122360	-0.010670
0.122380	-0.010351
0.122400	-0.009714
0.122420	-0.009714
0.122440	-0.009076
0.122460	-0.009714
0.122480	-0.010670
0.122500	-0.009076
0.122520	-0.010351
0.122540	-0.009714
0.122560	-0.009395
0.122580	-0.010351
0.122600	-0.009714
0.122620	-0.010988
0.122640	-0.010351
0.122660	-0.010351
0.122680	-0.010351
0.122700	-0.009714
0.122720	-0.009395
0.122740	-0.010032
0.122760	-0.009395
0.122780	-0.009714
0.122800	-0.008120
0.122820	-0.009714
0.122840	-0.010032
0.122860	-0.009714
0.122880	-0.010032
0.122900	-0.009714
0.122920	-0.010351
0.122940	-0.010351
0.122960	-0.010670
0.122980	-0.010988
0.123000	-0.010032
0.123020	-0.009714
0.123040	-0.010032
0.123060	-0.009714
0.123080	-0.009714
0.123100	-0.009395
0.123120	-0.009714
0.123140	-0.009714
0.123160	-0.009076
0.123180	-0.009714
0.123200	-0.009714
0.123220	-0.010670
0.123240	-0.011626
0.123260	-0.009714
0.123280	-0.010988
0.123300	-0.009395
0.123320	-0.011307
0.123340	-0.011626
0.123360	-0.010032
0.123380	-0.010351
0.123400	-0.009714
0.123420	-0.009395
0.123440	-0.010032
0.123460	-0.010032
0.123480	-0.010670
0.123500	-0.010351
0.123520	-0.010032
0.123540	-0.010670
0.123560	-0.010351
0.123580	-0.011626
0.123600	-0.010670
0.123620	-0.009714
0.123640	-0.010032
0.123660	-0.009714
0.123680	-0.010351
0.123700	-0.010670
0.123720	-0.009395
0.123740	-0.010351
0.123760	-0.008758
0.123780	-0.009395
0.123800	-0.010351
0.123820	-0.010670
0.123840	-0.010351
0.123860	-0.010032
0.123880	-0.010351
0.123900	-0.010670
0.123920	-0.010032
0.123940	-0.011626
0.123960	-0.010351
0.123980	-0.010032
0.124000	-0.009714
0.124020	-0.009076
0.124040	-0.008758
0.124060	-0.010351
0.124080	-0.009076
0.124100	-0.009714
0.124120	-0.009076
0.124140	-0.010670
0.124160	-0.009714
0.124180	-0.010988
0.124200	-0.011307
0.124220	-0.009714
0.124240	-0.010351
0.124260	-0.009714
0.124280	-0.010351
0.124300	-0.010670
0.124320	-0.009395
0.124340	-0.010351
0.124360	-0.009395
0.124380	-0.009395
0.124400	-0.010988
0.124420	-0.010032
0.124440	-0.009395
0.124460	-0.010670
0.124480	-0.010032
0.124500	-0.010670
0.124520	-0.010032
0.124540	-0.011626
0.124560	-0.010988
0.124580	-0.010351
0.124600	-0.010351
0.124620	-0.009395
0.124640	-0.010032
0.124660	-0.010351
0.124680	-0.009395
0.124700	-0.010032
0.124720	-0.008758
0.124740	-0.010032
0.124760	-0.010351
0.124780	-0.009395
0.124800	-0.010988
0.124820	-0.010670
0.124840	-0.010032
0.124860	-0.010032
0.124880	-0.010670
0.124900	-0.009714
0.124920	-0.009395
0.124940	-0.009395
0.124960	-0.010032
0.124980	-0.008120
0.125000	-0.009076
0.125020	-0.010670
0.125040	-0.009395
0.125060	-0.009714
0.125080	-0.009714
0.125100	-0.010032
0.125120	-0.009395
0.125140	-0.010351
0.125160	-0.011626
0.125180	-0.009714
0.125200	-0.010988
0.125220	-0.010032
0.125240	-0.009714
0.125260	-0.010351
0.125280	-0.010032
0.125300	-0.009714
0.125320	-0.009076
0.125340	-0.009076
0.125360	-0.010670
0.125380	-0.009076
0.125400	-0.010032
0.125420	-0.010351
0.125440	-0.009076
0.125460	-0.010670
0.125480	-0.010032
0.125500	-0.011307
0.125520	-0.010988
0.125540	-0.008758
0.125560	-0.010032
0.125580	-0.009395
0.125600	-0.009076
0.125620	-0.009714
0.125640	-0.010032
0.125660	-0.009714
0.125680	-0.008439
0.125700	-0.009714
0.125720	-0.010032
0.125740	-0.010351
0.125760	-0.010351
0.125780	-0.010351
0.125800	-0.009714
0.125820	-0.010032
0.125840	-0.010351
0.125860	-0.009714
0.125880	-0.010032
0.125900	-0.009714
0.125920	-0.009714
0.125940	-0.009076
0.125960	-0.010351
0.125980	-0.009076
0.126000	-0.009076
0.126020	-0.009076
0.126040	-0.009714
0.126060	-0.009714
0.126080	-0.009714
0.126100	-0.010351
0.126120	-0.011626
0.126140	-0.009714
0.126160	-0.010351
0.126180	-0.009714
0.126200	-0.011307
0.126220	-0.010351
0.126240	-0.009395
0.126260	-0.009395
0.126280	-0.009076
0.126300	-0.009714
0.126320	-0.010351
0.126340	-0.009714
0.126360	-0.010351
0.126380	-0.009395
0.126400	-0.009714
0.126420	-0.010670
0.126440	-0.009714
0.126460	-0.010351
0.126480	-0.010351
0.126500	-0.009076
0.126520	-0.010032
0.126540	-0.009395
0.126560	-0.010351
0.126580	-0.009714
0.126600	-0.009395
0.126620	-0.010032
0.126640	-0.008120
0.126660	-0.009395
0.126680	-0.009714
0.126700	-0.009714
0.126720	-0.010351
0.126740	-0.009714
0.126760	-0.010351
0.126780	-0.010032
0.126800	-0.010351
0.126820	-0.011307
0.126840	-0.009714
0.126860	-0.009395
0.126880	-0.009395
0.126900	-0.009714
0.126920	-0.009395
0.126940	-0.010032
0.126960	-0.010351
0.126980	-0.009395
0.127000	-0.009395
0.127020	-0.010670
0.127040	-0.009714
0.127060	-0.010032
0.127080	-0.011307
0.127100	-0.010032
0.127120	-0.010032
0.127140	-0.010032
0.127160	-0.011626
0.127180	-0.011307
0.127200	-0.009395
0.127220	-0.009714
0.127240	-0.008758
0.127260	-0.009076
0.127280	-0.009395
0.127300	-0.009076
0.127320	-0.009714
0.127340	-0.008758
0.127360	-0.009395
0.127380	-0.010670
0.127400	-0.010351
0.127420	-0.011626
0.127440	-0.011307
0.127460	-0.010032
0.127480	-0.010351
0.127500	-0.010032
0.127520	-0.009714
0.127540	-0.009395
0.127560	-0.009076
0.127580	-0.010032
0.127600	-0.007483
0.127620	-0.008758
0.127640	-0.010351
0.127660	-0.009395
0.127680	-0.009395
0.127700	-0.009714
0.127720	-0.010032
0.127740	-0.009395
0.127760	-0.010351
0.127780	-0.011626
0.127800	-0.009395
0.127820	-0.010032
0.127840	-0.009714
0.127860	-0.010032
0.127880	-0.009395
0.127900	-0.009395
0.127920	-0.009714
0.127940	-0.008758
0.127960	-0.009076
0.127980	-0.010670
0.128000	-0.009076
0.128020	-0.010351
0.128040	-0.011307
0.128060	-0.009076
0.128080	-0.009395
0.128100	-0.009714
0.128120	-0.010670
0.128140	-0.010351
0.128160	-0.009076
0.128180	-0.010032
0.128200	-0.009076
0.128220	-0.008439
0.128240	-0.010670
0.128260	-0.009076
0.128280	-0.009714
0.128300	-0.009714
0.128320	-0.009714
0.128340	-0.010032
0.128360	-0.009395
0.128380	-0.010351
0.128400	-0.010032
0.128420	-0.009076
0.128440	-0.010032
0.128460	-0.009395
0.128480	-0.008758
0.128500	-0.009395
0.128520	-0.009076
0.128540	-0.009714
0.128560	-0.007802
0.128580	-0.009076
0.128600	-0.009076
0.128620	-0.009076
0.128640	-0.009395
0.128660	-0.010351
0.128680	-0.010032
0.128700	-0.010351
0.128720	-0.010988
0.128740	-0.010351
0.128760	-0.010351
0.128780	-0.009714
0.128800	-0.009714
0.128820	-0.008758
0.128840	-0.009395
0.128860	-0.009714
0.128880	-0.009076
0.128900	-0.009076
0.128920	-0.009076
0.128940	-0.009714
0.128960	-0.010032
0.128980	-0.010351
0.129000	-0.010988
0.129020	-0.009714
0.129040	-0.010670
0.129060	-0.009714
0.129080	-0.010670
0.129100	-0.010351
0.129120	-0.009076
0.129140	-0.010032
0.129160	-0.009076
0.129180	-0.009714
0.129200	-0.010351
0.129220	-0.009714
0.129240	-0.009395
0.129260	-0.009076
0.129280	-0.010032
0.129300	-0.010351
0.129320	-0.010032
0.129340	-0.010988
0.129360	-0.010032
0.129380	-0.010032
0.129400	-0.010351
0.129420	-0.009076
0.129440	-0.009714
0.129460	-0.009714
0.129480	-0.009076
0.129500	-0.009076
0.129520	-0.007802
0.129540	-0.009714
0.129560	-0.010032
0.129580	-0.010032
0.129600	-0.010351
0.129620	-0.009395
0.129640	-0.009076
0.129660	-0.009395
0.129680	-0.009714
0.129700	-0.010032
0.129720	-0.009076
0.129740	-0.008758
0.129760	-0.009395
0.129780	-0.009076
0.129800	-0.009076
0.129820	-0.009076
0.129840	-0.009395
0.129860	-0.008439
0.129880	-0.008758
0.129900	-0.010032
0.129920	-0.009395
0.129940	-0.009714
0.129960	-0.010988
0.129980	-0.009714
0.130000	-0.009714
0.130020	-0.009395
0.130040	-0.010670
0.130060	-0.010670
0.130080	-0.009076
0.130100	-0.009395
0.130120	-0.008120
0.130140	-0.008120
0.130160	-0.010032
0.130180	-0.009395
0.130200	-0.010351
0.130220	-0.009395
0.130240	-0.008758
0.130260	-0.010351
0.130280	-0.009395
0.130300	-0.010988
0.130320	-0.010351
0.130340	-0.009076
0.130360	-0.009395
0.130380	-0.009395
0.130400	-0.009076
0.130420	-0.009395
0.130440	-0.008439
0.130460	-0.009714
0.130480	-0.008120
0.130500	-0.009076
0.130520	-0.009714
0.130540	-0.009714
0.130560	-0.009714
0.130580	-0.010032
0.130600	-0.010032
0.130620	-0.009714
0.130640	-0.009395
0.130660	-0.010351
0.130680	-0.010351
0.130700	-0.009395
0.130720	-0.009714
0.130740	-0.008120
0.130760	-0.009076
0.130780	-0.009076
0.130800	-0.009395
0.130820	-0.008758
0.130840	-0.009395
0.130860	-0.009395
0.130880	-0.009395
0.130900	-0.009714
0.130920	-0.011626
0.130940	-0.009395
0.130960	-0.010032
0.130980	-0.008439
0.131000	-0.010351
0.131020	-0.009395
0.131040	-0.009395
0.131060	-0.009714
0.131080	-0.008758
0.131100	-0.008439
0.131120	-0.009395
0.131140	-0.009076
0.131160	-0.009714
0.131180	-0.009395
0.131200	-0.010351
0.131220	-0.010032
0.131240	-0.009714
0.131260	-0.010351
0.131280	-0.010351
0.131300	-0.009076
0.131320	-0.009714
0.131340	-0.009076
0.131360	-0.009076
0.131380	-0.009714
0.131400	-0.009076
0.131420	-0.009076
0.131440	-0.007802
0.131460	-0.008758
0.131480	-0.009714
0.131500	-0.009076
0.131520	-0.009714
0.131540	-0.010032
0.131560	-0.009395
0.131580	-0.010032
0.131600	-0.010351
0.131620	-0.010032
0.131640	-0.009395
0.131660	-0.009395
0.131680	-0.009395
0.131700	-0.008120
0.131720	-0.008439
0.131740	-0.009076
0.131760	-0.008758
0.131780	-0.008758
0.131800	-0.008439
0.131820	-0.009714
0.131840	-0.009395
0.131860	-0.009714
0.131880	-0.010670
0.131900	-0.008758
0.131920	-0.009395
0.131940	-0.009714
0.131960	-0.010351
0.131980	-0.009076
0.132000	-0.009076
0.132020	-0.009395
0.132040	-0.008439
0.132060	-0.008758
0.132080	-0.009714
0.132100	-0.008758
0.132120	-0.009076
0.132140	-0.009395
0.132160	-0.009714
0.132180	-0.010032
0.132200	-0.009714
0.132220	-0.010988
0.132240	-0.010670
0.132260	-0.009076
0.132280	-0.010351
0.132300	-0.009395
0.132320	-0.009076
0.132340	-0.009714
0.132360	-0.009076
0.132380	-0.008758
0.132400	-0.008120
0.132420	-0.009076
0.132440	-0.009714
0.132460	-0.009076
0.132480	-0.009395
0.132500	-0.009714
0.132520	-0.008758
0.132540	-0.010032
0.132560	-0.010032
0.132580	-0.010032
0.132600	-0.009395
0.132620	-0.009076
0.132640	-0.008758
0.132660	-0.008758
0.132680	-0.008758
0.132700	-0.009076
0.132720	-0.008120
0.132740	-0.008758
0.132760	-0.009076
0.132780	-0.009076
0.132800	-0.009395
0.132820	-0.009714
0.132840	-0.011626
0.132860	-0.009076
0.132880	-0.009714
0.132900	-0.009714
0.132920	-0.010032
0.132940	-0.010670
0.132960	-0.009395
0.132980	-0.009395
0.133000	-0.008439
0.133020	-0.009076
0.133040	-0.008758
0.133060	-0.009076
0.133080	-0.009076
0.133100	-0.009714
0.133120	-0.009076
0.133140	-0.009714
0.133160	-0.010032
0.133180	-0.010351
0.133200	-0.010351
0.133220	-0.009395
0.133240	-0.010032
0.133260	-0.009395
0.133280	-0.009076
0.133300	-0.009714
0.133320	-0.009076
0.133340	-0.008758
0.133360	-0.007802
0.133380	-0.008758
0.133400	-0.009076
0.133420	-0.009076
0.133440	-0.009714
0.133460	-0.009395
0.133480	-0.009076
0.133500	-0.009714
0.133520	-0.010351
0.133540	-0.010351
0.133560	-0.009076
0.133580	-0.009076
0.133600	-0.009714
0.133620	-0.009076
0.133640	-0.008758
0.133660	-0.009714
0.133680	-0.009395
0.133700	-0.009076
0.133720	-0.008439
0.133740	-0.009714
0.133760	-0.009714
0.133780	-0.010351
0.133800	-0.011307
0.133820	-0.009714
0.133840	-0.010032
0.133860	-0.009395
0.133880	-0.010032
0.133900	-0.010032
0.133920	-0.009714
0.133940	-0.009714
0.133960	-0.009076
0.133980	-0.008439
0.134000	-0.010351
0.134020	-0.008439
0.134040	-0.009395
0.134060	-0.009076
0.134080	-0.009395
0.134100	-0.010351
0.134120	-0.009714
0.134140	-0.010670
0.134160	-0.010032
0.134180	-0.009714
0.134200	-0.010351
0.134220	-0.009714
0.134240	-0.009395
0.134260	-0.009076
0.134280	-0.009076
0.134300	-0.009714
0.134320	-0.007483
0.134340	-0.008758
0.134360	-0.009714
0.134380	-0.009395
0.134400	-0.009714
0.134420	-0.009076
0.134440	-0.009076
0.134460	-0.009714
0.134480	-0.010032
0.134500	-0.010670
0.134520	-0.009714
0.134540	-0.009395
0.134560	-0.008758
0.134580	-0.009076
0.134600	-0.009076
0.134620	-0.009395
0.134640	-0.009076
0.134660	-0.008758
0.134680	-0.008439
0.134700	-0.009714
0.134720	-0.009714
0.134740	-0.009714
0.134760	-0.010670
0.134780	-0.008758
0.134800	-0.009714
0.134820	-0.009395
0.134840	-0.010032
0.134860	-0.010032
0.134880	-0.009076
0.134900	-0.009395
0.134920	-0.008758
0.134940	-0.008439
0.134960	-0.010032
0.134980	-0.008758
0.135000	-0.009395
0.135020	-0.009395
0.135040	-0.010351
0.135060	-0.009395
0.135080	-0.009395
0.135100	-0.010670
0.135120	-0.010351
0.135140	-0.009714
0.135160	-0.010032
0.135180	-0.009714
0.135200	-0.008439
0.135220	-0.009076
0.135240	-0.009395
0.135260	-0.009076
0.135280	-0.007483
0.135300	-0.009395
0.135320	-0.009395
0.135340	-0.009076
0.135360	-0.010351
0.135380	-0.009714
0.135400	-0.009714
0.135420	-0.010351
0.135440	-0.010351
0.135460	-0.010351
0.135480	-0.009076
0.135500	-0.009395
0.135520	-0.009076
0.135540	-0.009076
0.135560	-0.009076
0.135580	-0.010032
0.135600	-0.009076
0.135620	-0.008439
0.135640	-0.008758
0.135660	-0.010351
0.135680	-0.009076
0.135700	-0.010032
0.135720	-0.011307
0.135740	-0.008758
0.135760	-0.010351
0.135780	-0.009714
0.135800	-0.010032
0.135820	-0.010351
0.135840	-0.008758
0.135860	-0.010351
0.135880	-0.008758
0.135900	-0.008758
0.135920	-0.010351
0.135940	-0.009076
0.135960	-0.010032
0.135980	-0.010032
0.136000	-0.009714
0.136020	-0.009395
0.136040	-0.009714
0.136060	-0.010670
0.136080	-0.010351
0.136100	-0.009714
0.136120	-0.010032
0.136140	-0.009076
0.136160	-0.008758
0.136180	-0.009395
0.136200	-0.009395
0.136220	-0.009076
0.136240	-0.007483
0.136260	-0.009395
0.136280	-0.010032
0.136300	-0.009076
0.136320	-0.010351
0.136340	-0.009395
0.136360	-0.008758
0.136380	-0.009076
0.136400	-0.010032
0.136420	-0.009714
0.136440	-0.009714
0.136460	-0.009714
0.136480	-0.008758
0.136500	-0.007483
0.136520	-0.009076
0.136540	-0.009076
0.136560	-0.009395
0.136580	-0.008758
0.136600	-0.009076
0.136620	-0.009714
0.136640	-0.009076
0.136660	-0.010351
0.136680	-0.010988
0.136700	-0.009395
0.136720	-0.010351
0.136740	-0.009395
0.136760	-0.010351
0.136780	-0.009076
0.136800	-0.008758
0.136820	-0.009076
0.136840	-0.008758
0.136860	-0.009076
0.136880	-0.009714
0.136900	-0.008439
0.136920	-0.008758
0.136940	-0.009714
0.136960	-0.008758
0.136980	-0.010032
0.137000	-0.010032
0.137020	-0.010988
0.137040	-0.010988
0.137060	-0.009714
0.137080	-0.009714
0.137100	-0.009395
0.137120	-0.009076
0.137140	-0.009714
0.137160	-0.008439
0.137180	-0.008758
0.137200	-0.008120
0.137220	-0.009395
0.137240	-0.009714
0.137260	-0.009076
0.137280	-0.009714
0.137300	-0.009714
0.137320	-0.009714
0.137340	-0.010351
0.137360	-0.010351
0.137380	-0.009714
0.137400	-0.009714
0.137420	-0.010032
0.137440	-0.009076
0.137460	-0.009076
0.137480	-0.009076
0.137500	-0.009395
0.137520	-0.009076
0.137540	-0.009076
0.137560	-0.009076
0.137580	-0.009714
0.137600	-0.010032
0.137620	-0.009395
0.137640	-0.011307
0.137660	-0.009076
0.137680	-0.009395
0.137700	-0.009395
0.137720	-0.009714
0.137740	-0.010351
0.137760	-0.008758
0.137780	-0.009076
0.137800	-0.008758
0.137820	-0.008439
0.137840	-0.009714
0.137860	-0.009076
0.137880	-0.009714
0.137900	-0.010032
0.137920	-0.009395
0.137940	-0.010032
0.137960	-0.009076
0.137980	-0.010351
0.138000	-0.010351
0.138020	-0.009076
0.138040	-0.009076
0.138060	-0.009395
0.138080	-0.009076
0.138100	-0.009395
0.138120	-0.009076
0.138140	-0.009395
0.138160	-0.008120
0.138180	-0.008439
0.138200	-0.009714
0.138220	-0.009395
0.138240	-0.010032
0.138260	-0.009395
0.138280	-0.009395
0.138300	-0.009714
0.138320	-0.009714
0.138340	-0.009714
0.138360	-0.009076
0.138380	-0.009395
0.138400	-0.009076
0.138420	-0.008439
0.138440	-0.008758
0.138460	-0.009076
0.138480	-0.009076
0.138500	-0.009076
0.138520	-0.009076
0.138540	-0.009714
0.138560	-0.009395
0.138580	-0.010032
0.138600	-0.010988
0.138620	-0.008758
0.138640	-0.009714
0.138660	-0.009714
0.138680	-0.009714
0.138700	-0.009076
0.138720	-0.008439
0.138740	-0.009714
0.138760	-0.008120
0.138780	-0.008439
0.138800	-0.009714
0.138820	-0.008758
0.138840	-0.009076
0.138860	-0.009714
0.138880	-0.009076
0.138900	-0.009076
0.138920	-0.009714
0.138940	-0.010988
0.138960	-0.010032
0.138980	-0.008120
0.139000	-0.009076
0.139020	-0.008758
0.139040	-0.009076
0.139060	-0.009395
0.139080	-0.008758
0.139100	-0.008439
0.139120	-0.007802
0.139140	-0.009395
0.139160	-0.009395
0.139180	-0.008758
0.139200	-0.009395
0.139220	-0.010670
0.139240	-0.009395
0.139260	-0.009714
0.139280	-0.010351
0.139300	-0.009714
0.139320	-0.008758
0.139340	-0.009395
0.139360	-0.009395
0.139380	-0.007164
0.139400	-0.009076
0.139420	-0.009076
0.139440	-0.009076
0.139460	-0.009076
0.139480	-0.009076
0.139500	-0.010670
0.139520	-0.009076
0.139540	-0.010351
0.139560	-0.010988
0.139580	-0.008758
0.139600	-0.009714
0.139620	-0.009395
0.139640	-0.010032
0.139660	-0.010032
0.139680	-0.008758
0.139700	-0.009395
0.139720	-0.008439
0.139740	-0.008758
0.139760	-0.010032
0.139780	-0.008439
0.139800	-0.009714
0.139820	-0.010032
0.139840	-0.009395
0.139860	-0.009714
0.139880	-0.009714
0.139900	-0.010988
0.139920	-0.010988
0.139940	-0.009395
0.139960	-0.009714
0.139980	-0.008439
0.140000	-0.009076
0.140020	-0.009395
0.140040	-0.008758
0.140060	-0.008758
0.140080	-0.007802
0.140100	-0.009395
0.140120	-0.009395
0.140140	-0.009395
0.140160	-0.009714
0.140180	-0.009076
0.140200	-0.008758
0.140220	-0.009714
0.140240	-0.009395
0.140260	-0.010032
0.140280	-0.009714
0.140300	-0.009395
0.140320	-0.008758
0.140340	-0.008120
0.140360	-0.008758
0.140380	-0.009714
0.140400	-0.008758
0.140420	-0.008758
0.140440	-0.008758
0.140460	-0.008758
0.140480	-0.009076
0.140500	-0.009714
0.140520	-0.010670
0.140540	-0.009076
0.140560	-0.010351
0.140580	-0.009076
0.140600	-0.009395
0.140620	-0.009395
0.140640	-0.008758
0.140660	-0.009395
0.140680	-0.008439
0.140700	-0.008758
0.140720	-0.009714
0.140740	-0.008120
0.140760	-0.009395
0.140780	-0.010032
0.140800	-0.008758
0.140820	-0.009714
0.140840	-0.010032
0.140860	-0.010670
0.140880	-0.010032
0.140900	-0.009076
0.140920	-0.010351
0.140940	-0.008758
0.140960	-0.009076
0.140980	-0.009395
0.141000	-0.009076
0.141020	-0.009076
0.141040	-0.008120
0.141060	-0.008439
0.141080	-0.009714
0.141100	-0.009714
0.141120	-0.009714
0.141140	-0.010032
0.141160	-0.009076
0.141180	-0.009714
0.141200	-0.009076
0.141220	-0.009714
0.141240	-0.009076
0.141260	-0.009714
0.141280	-0.008439
0.141300	-0.008439
0.141320	-0.008758
0.141340	-0.009076
0.141360	-0.008758
0.141380	-0.008758
0.141400	-0.007802
0.141420	-0.009714
0.141440	-0.008758
0.141460	-0.010032
0.141480	-0.010670
0.141500	-0.009714
0.141520	-0.009714
0.141540	-0.009076
0.141560	-0.009714
0.141580	-0.010351
0.141600	-0.008120
0.141620	-0.009714
0.141640	-0.008758
0.141660	-0.008439
0.141680	-0.010032
0.141700	-0.008758
0.141720	-0.009076
0.141740	-0.009714
0.141760	-0.010032
0.141780	-0.010670
0.141800	-0.009076
0.141820	-0.010988
0.141840	-0.010351
0.141860	-0.008439
0.141880	-0.009714
0.141900	-0.008758
0.141920	-0.008439
0.141940	-0.009076
0.141960	-0.009076
0.141980	-0.009395
0.142000	-0.007164
0.142020	-0.009076
0.142040	-0.009395
0.142060	-0.009076
0.142080	-0.009714
0.142100	-0.009395
0.142120	-0.009395
0.142140	-0.009395
0.142160	-0.010351
0.142180	-0.010351
0.142200	-0.009076
0.142220	-0.009076
0.142240	-0.009076
0.142260	-0.007802
0.142280	-0.008758
0.142300	-0.009395
0.142320	-0.009714
0.142340	-0.009076
0.142360	-0.008120
0.142380	-0.009076
0.142400	-0.009076
0.142420	-0.009395
0.142440	-0.010670
0.142460	-0.009076
0.142480	-0.009714
0.142500	-0.009714
0.142520	-0.010670
0.142540	-0.009395
0.142560	-0.008439
0.142580	-0.009395
0.142600	-0.008439
0.142620	-0.008120
0.142640	-0.009714
0.142660	-0.008439
0.142680	-0.009076
0.142700	-0.008439
0.142720	-0.009076
0.142740	-0.009714
0.142760	-0.009395
0.142780	-0.010988
0.142800	-0.010032
0.142820	-0.008758
0.142840	-0.009714
0.142860	-0.009714
0.142880	-0.008439
0.142900	-0.009714
0.142920	-0.009395
0.142940	-0.009076
0.142960	-0.007164
0.142980	-0.009076
0.143000	-0.009395
0.143020	-0.008758
0.143040	-0.009395
0.143060	-0.009076
0.143080	-0.009714
0.143100	-0.009076
0.143120	-0.010032
0.143140	-0.010351
0.143160	-0.009076
0.143180	-0.009714
0.143200	-0.009395
0.143220	-0.007802
0.143240	-0.008439
0.143260	-0.009076
0.143280	-0.008758
0.143300	-0.008120
0.143320	-0.009076
0.143340	-0.009395
0.143360	-0.008758
0.143380	-0.009395
0.143400	-0.010670
0.143420	-0.009076
0.143440	-0.009076
0.143460	-0.009395
0.143480	-0.010670
0.143500	-0.009714
0.143520	-0.009076
0.143540	-0.009395
0.143560	-0.008120
0.143580	-0.008439
0.143600	-0.009076
0.143620	-0.008439
0.143640	-0.009076
0.143660	-0.008120
0.143680	-0.009076
0.143700	-0.009076
0.143720	-0.009076
0.143740	-0.010351
0.143760	-0.010032
0.143780	-0.009076
0.143800	-0.009714
0.143820	-0.009714
0.143840	-0.008758
0.143860	-0.008758
0.143880	-0.009076
0.143900	-0.008758
0.143920	-0.007164
0.143940	-0.009076
0.143960	-0.008758
0.143980	-0.009076
0.144000	-0.009395
0.144020	-0.009076
0.144040	-0.009076
0.144060	-0.009714
0.144080	-0.010032
0.144100	-0.010032
0.144120	-0.009076
0.144140	-0.009076
0.144160	-0.008439
0.144180	-0.008758
0.144200	-0.009395
0.144220	-0.008439
0.144240	-0.008439
0.144260	-0.008439
0.144280	-0.008439
0.144300	-0.009395
0.144320	-0.008439
0.144340	-0.009714
0.144360	-0.010670
0.144380	-0.009076
0.144400	-0.009714
0.144420	-0.008758
0.144440	-0.009714
0.144460	-0.009395
0.144480	-0.008758
0.144500	-0.008758
0.144520	-0.008758
0.144540	-0.009076
0.144560	-0.009395
0.144580	-0.009076
0.144600	-0.009395
0.144620	-0.008439
0.144640	-0.008120
0.144660	-0.009395
0.144680	-0.009076
0.144700	-0.010032
0.144720	-0.010351
0.144740	-0.008758
0.144760	-0.009076
0.144780	-0.008439
0.144800	-0.008439
0.144820	-0.009076
0.144840	-0.008439
0.144860	-0.009076
0.144880	-0.007802
0.144900	-0.008439
0.144920	-0.009395
0.144940	-0.009076
0.144960	-0.009714
0.144980	-0.009395
0.145000	-0.008758
0.145020	-0.009395
0.145040	-0.009395
0.145060	-0.008758
0.145080	-0.008758
0.145100	-0.009076
0.145120	-0.009076
0.145140	-0.008120
0.145160	-0.008439
0.145180	-0.008758
0.145200	-0.009076
0.145220	-0.008120
0.145240	-0.008120
0.145260	-0.009076
0.145280	-0.009076
0.145300	-0.009395
0.145320	-0.010351
0.145340	-0.009395
0.145360	-0.009714
0.145380	-0.008758
0.145400	-0.009714
0.145420	-0.009714
0.145440	-0.008120
0.145460	-0.009076
0.145480	-0.008120
0.145500	-0.007802
0.145520	-0.009714
0.145540	-0.008439
0.145560	-0.009395
0.145580	-0.010032
0.145600	-0.009395
0.145620	-0.009395
0.145640	-0.009076
0.145660	-0.010351
0.145680	-0.009714
0.145700	-0.008120
0.145720	-0.009076
0.145740	-0.009076
0.145760	-0.008439
0.145780	-0.009395
0.145800	-0.008120
0.145820	-0.009076
0.145840	-0.007483
0.145860	-0.008758
0.145880	-0.009395
0.145900	-0.009076
0.145920	-0.010351
0.145940	-0.009395
0.145960	-0.009395
0.145980	-0.009076
0.146000	-0.009395
0.146020	-0.009395
0.146040	-0.008758
0.146060	-0.008758
0.146080	-0.008758
0.146100	-0.007483
0.146120	-0.008120
0.146140	-0.009395
0.146160	-0.008758
0.146180	-0.008758
0.146200	-0.007802
0.146220	-0.009714
0.146240	-0.008758
0.146260	-0.009714
0.146280	-0.010670
0.146300	-0.009076
0.146320	-0.009076
0.146340	-0.009714
0.146360	-0.009076
0.146380	-0.008758
0.146400	-0.008758
0.146420	-0.009076
0.146440	-0.008120
0.146460	-0.007802
0.146480	-0.009714
0.146500	-0.009076
0.146520	-0.009076
0.146540	-0.010032
0.146560	-0.009076
0.146580	-0.010032
0.146600	-0.009076
0.146620	-0.010032
0.146640	-0.010032
0.146660	-0.008758
0.146680	-0.008758
0.146700	-0.009076
0.146720	-0.008120
0.146740	-0.009076
0.146760	-0.008439
0.146780	-0.009076
0.146800	-0.007483
0.146820	-0.008758
0.146840	-0.009714
0.146860	-0.009076
0.146880	-0.009714
0.146900	-0.009395
0.146920	-0.009076
0.146940	-0.009714
0.146960	-0.009714
0.146980	-0.009076
0.147000	-0.008758
0.147020	-0.008120
0.147040	-0.009076
0.147060	-0.007483
0.147080	-0.008439
0.147100	-0.008758
0.147120	-0.008120
0.147140	-0.009076
0.147160	-0.009076
0.147180	-0.009076
0.147200	-0.009076
0.147220	-0.009714
0.147240	-0.009714
0.147260	-0.008758
0.147280	-0.008758
0.147300	-0.008439
0.147320	-0.008758
0.147340	-0.009076
0.147360	-0.008439
0.147380	-0.008439
0.147400	-0.008439
0.147420	-0.007802
0.147440	-0.009395
0.147460	-0.008439
0.147480	-0.009395
0.147500	-0.010351
0.147520	-0.008758
0.147540	-0.010351
0.147560	-0.009076
0.147580	-0.010351
0.147600	-0.009395
0.147620	-0.007802
0.147640	-0.009714
0.147660	-0.007802
0.147680	-0.008758
0.147700	-0.009076
0.147720	-0.008120
0.147740	-0.009076
0.147760	-0.008439
0.147780	-0.008439
0.147800	-0.009076
0.147820	-0.009076
0.147840	-0.010032
0.147860	-0.008758
0.147880	-0.008758
0.147900	-0.009714
0.147920	-0.008758
0.147940	-0.008758
0.147960	-0.009076
0.147980	-0.008439
0.148000	-0.008439
0.148020	-0.007802
0.148040	-0.008758
0.148060	-0.009076
0.148080	-0.008758
0.148100	-0.008758
0.148120	-0.008439
0.148140	-0.009395
0.148160	-0.010032
0.148180	-0.009714
0.148200	-0.010351
0.148220	-0.008758
0.148240	-0.009395
0.148260	-0.008758
0.148280	-0.009395
0.148300	-0.009714
0.148320	-0.008758
0.148340	-0.008758
0.148360	-0.007802
0.148380	-0.008120
0.148400	-0.010351
0.148420	-0.008758
0.148440	-0.009076
0.148460	-0.009714
0.148480	-0.009076
0.148500	-0.009714
0.148520	-0.008439
0.148540	-0.009714
0.148560	-0.009714
0.148580	-0.008439
0.148600	-0.008758
0.148620	-0.008120
0.148640	-0.008758
0.148660	-0.008439
0.148680	-0.008120
0.148700	-0.009076
0.148720	-0.007802
0.148740	-0.009076
0.148760	-0.009395
0.148780	-0.009076
0.148800	-0.009714
0.148820	-0.009714
0.148840	-0.010032
0.148860	-0.009395
0.148880	-0.009076
0.148900	-0.009076
0.148920	-0.008758
0.148940	-0.008758
0.148960	-0.008439
0.148980	-0.007164
0.149000	-0.008439
0.149020	-0.009076
0.149040	-0.008758
0.149060	-0.008120
0.149080	-0.008439
0.149100	-0.009395
0.149120	-0.009714
0.149140	-0.010032
0.149160	-0.010988
0.149180	-0.009076
0.149200	-0.009395
0.149220	-0.008758
0.149240	-0.009395
0.149260	-0.009395
0.149280	-0.009076
0.149300	-0.008758
0.149320	-0.008439
0.149340	-0.008120
0.149360	-0.008758
0.149380	-0.008439
0.149400	-0.009395
0.149420	-0.009714
0.149440	-0.009076
0.149460	-0.009076
0.149480	-0.009076
0.149500	-0.010351
0.149520	-0.010351
0.149540	-0.008758
0.149560	-0.009395
0.149580	-0.008758
0.149600	-0.008439
0.149620	-0.009395
0.149640	-0.008758
0.149660	-0.008439
0.149680	-0.007483
0.149700	-0.008758
0.149720	-0.009076
0.149740	-0.008758
0.149760	-0.009714
0.149780	-0.009395
0.149800	-0.009076
0.149820	-0.009395
0.149840	-0.009395
0.149860	-0.009395
0.149880	-0.009076
0.149900	-0.008758
0.149920	-0.009076
0.149940	-0.007164
0.149960	-0.008439
0.149980	-0.009395

