LabVIEW Measurement	
Writer_Version	2
Reader_Version	2
Separator	Tab
Decimal_Separator	.
Multi_Headings	Yes
X_Columns	One
Time_Pref	Relative
Operator	BME 302
Description	Time Domain Data
Date	2018/03/22
Time	14:33:56.8604478836059570312
***End_of_Header***	
	
Channels	1	
Samples	3750	
Date	1903/12/31	
Time	19:00:00	
X_Dimension	Time	
X0	0.0000000000000000E+0	
Delta_X	2.000000E-5	
***End_of_Header***		
X_Value	Untitled	Comment
0.000000	-0.005889	Tare Values:0.000000, 0.000000, 0.000000, 0.000000\0D\0A
2.000000E-5	-0.005252
4.000000E-5	-0.005252
6.000000E-5	-0.003340
8.000000E-5	-0.004933
0.000100	-0.005889
0.000120	-0.005252
0.000140	-0.006208
0.000160	-0.005571
0.000180	-0.004933
0.000200	-0.004933
0.000220	-0.005252
0.000240	-0.006208
0.000260	-0.005252
0.000280	-0.005571
0.000300	-0.005571
0.000320	-0.003977
0.000340	-0.004296
0.000360	-0.004615
0.000380	-0.005252
0.000400	-0.003977
0.000420	-0.004933
0.000440	-0.005889
0.000460	-0.005571
0.000480	-0.005252
0.000500	-0.006527
0.000520	-0.004933
0.000540	-0.005889
0.000560	-0.004933
0.000580	-0.005571
0.000600	-0.005252
0.000620	-0.004933
0.000640	-0.005571
0.000660	-0.004296
0.000680	-0.004615
0.000700	-0.004933
0.000720	-0.004615
0.000740	-0.005252
0.000760	-0.005889
0.000780	-0.005571
0.000800	-0.005571
0.000820	-0.005571
0.000840	-0.006846
0.000860	-0.005252
0.000880	-0.004615
0.000900	-0.005571
0.000920	-0.004615
0.000940	-0.005252
0.000960	-0.005571
0.000980	-0.004296
0.001000	-0.005252
0.001020	-0.003977
0.001040	-0.004933
0.001060	-0.005889
0.001080	-0.005889
0.001100	-0.005889
0.001120	-0.006208
0.001140	-0.004933
0.001160	-0.005571
0.001180	-0.005252
0.001200	-0.004933
0.001220	-0.005571
0.001240	-0.005889
0.001260	-0.004615
0.001280	-0.003977
0.001300	-0.004615
0.001320	-0.004615
0.001340	-0.004615
0.001360	-0.005571
0.001380	-0.005252
0.001400	-0.005252
0.001420	-0.006846
0.001440	-0.005889
0.001460	-0.005571
0.001480	-0.005571
0.001500	-0.004933
0.001520	-0.004615
0.001540	-0.004615
0.001560	-0.005252
0.001580	-0.005252
0.001600	-0.004615
0.001620	-0.004933
0.001640	-0.004615
0.001660	-0.005252
0.001680	-0.004615
0.001700	-0.005889
0.001720	-0.007164
0.001740	-0.004296
0.001760	-0.006208
0.001780	-0.005889
0.001800	-0.005571
0.001820	-0.005571
0.001840	-0.004615
0.001860	-0.005252
0.001880	-0.004615
0.001900	-0.004933
0.001920	-0.006527
0.001940	-0.004296
0.001960	-0.004933
0.001980	-0.005889
0.002000	-0.004933
0.002020	-0.005889
0.002040	-0.005252
0.002060	-0.006527
0.002080	-0.005889
0.002100	-0.004933
0.002120	-0.005571
0.002140	-0.005571
0.002160	-0.004615
0.002180	-0.005889
0.002200	-0.004933
0.002220	-0.004933
0.002240	-0.003659
0.002260	-0.005252
0.002280	-0.004615
0.002300	-0.005252
0.002320	-0.006527
0.002340	-0.005571
0.002360	-0.005571
0.002380	-0.005252
0.002400	-0.004933
0.002420	-0.005889
0.002440	-0.005252
0.002460	-0.005571
0.002480	-0.005252
0.002500	-0.003659
0.002520	-0.004296
0.002540	-0.004933
0.002560	-0.004296
0.002580	-0.004933
0.002600	-0.004615
0.002620	-0.005571
0.002640	-0.004933
0.002660	-0.005252
0.002680	-0.006846
0.002700	-0.005252
0.002720	-0.005252
0.002740	-0.005571
0.002760	-0.005252
0.002780	-0.005252
0.002800	-0.004933
0.002820	-0.004933
0.002840	-0.003659
0.002860	-0.004615
0.002880	-0.005889
0.002900	-0.004933
0.002920	-0.005252
0.002940	-0.005252
0.002960	-0.005252
0.002980	-0.005571
0.003000	-0.005252
0.003020	-0.006208
0.003040	-0.006208
0.003060	-0.004933
0.003080	-0.004933
0.003100	-0.005252
0.003120	-0.004615
0.003140	-0.005252
0.003160	-0.004933
0.003180	-0.004933
0.003200	-0.003340
0.003220	-0.004615
0.003240	-0.004933
0.003260	-0.005252
0.003280	-0.005571
0.003300	-0.006208
0.003320	-0.004933
0.003340	-0.005252
0.003360	-0.005571
0.003380	-0.005252
0.003400	-0.005889
0.003420	-0.004615
0.003440	-0.005252
0.003460	-0.003340
0.003480	-0.004296
0.003500	-0.004933
0.003520	-0.005252
0.003540	-0.004933
0.003560	-0.004615
0.003580	-0.005571
0.003600	-0.005252
0.003620	-0.005889
0.003640	-0.006846
0.003660	-0.004933
0.003680	-0.005571
0.003700	-0.005252
0.003720	-0.005252
0.003740	-0.005252
0.003760	-0.005252
0.003780	-0.005889
0.003800	-0.004615
0.003820	-0.003659
0.003840	-0.005571
0.003860	-0.004615
0.003880	-0.005252
0.003900	-0.006527
0.003920	-0.004615
0.003940	-0.005252
0.003960	-0.004933
0.003980	-0.006208
0.004000	-0.006527
0.004020	-0.004296
0.004040	-0.005252
0.004060	-0.004615
0.004080	-0.005252
0.004100	-0.005252
0.004120	-0.004615
0.004140	-0.004933
0.004160	-0.003977
0.004180	-0.004933
0.004200	-0.005889
0.004220	-0.006208
0.004240	-0.006527
0.004260	-0.005889
0.004280	-0.005252
0.004300	-0.005571
0.004320	-0.004933
0.004340	-0.005252
0.004360	-0.004933
0.004380	-0.005252
0.004400	-0.004933
0.004420	-0.003340
0.004440	-0.004615
0.004460	-0.004296
0.004480	-0.005252
0.004500	-0.005252
0.004520	-0.005252
0.004540	-0.005252
0.004560	-0.005571
0.004580	-0.005252
0.004600	-0.006527
0.004620	-0.005571
0.004640	-0.005889
0.004660	-0.004296
0.004680	-0.004933
0.004700	-0.004933
0.004720	-0.004615
0.004740	-0.004615
0.004760	-0.004615
0.004780	-0.003977
0.004800	-0.005252
0.004820	-0.005252
0.004840	-0.005252
0.004860	-0.006527
0.004880	-0.004615
0.004900	-0.005889
0.004920	-0.005252
0.004940	-0.005889
0.004960	-0.006208
0.004980	-0.003977
0.005000	-0.005571
0.005020	-0.004296
0.005040	-0.005252
0.005060	-0.005252
0.005080	-0.004933
0.005100	-0.005252
0.005120	-0.003977
0.005140	-0.004615
0.005160	-0.006208
0.005180	-0.005252
0.005200	-0.005889
0.005220	-0.005571
0.005240	-0.004933
0.005260	-0.005252
0.005280	-0.005571
0.005300	-0.004933
0.005320	-0.004933
0.005340	-0.004615
0.005360	-0.005252
0.005380	-0.003021
0.005400	-0.004296
0.005420	-0.004933
0.005440	-0.004933
0.005460	-0.005252
0.005480	-0.004933
0.005500	-0.005252
0.005520	-0.005571
0.005540	-0.005252
0.005560	-0.006208
0.005580	-0.004933
0.005600	-0.004933
0.005620	-0.004933
0.005640	-0.004615
0.005660	-0.005252
0.005680	-0.004615
0.005700	-0.004933
0.005720	-0.004296
0.005740	-0.003977
0.005760	-0.005571
0.005780	-0.004615
0.005800	-0.005571
0.005820	-0.006527
0.005840	-0.005252
0.005860	-0.005889
0.005880	-0.005252
0.005900	-0.005889
0.005920	-0.006208
0.005940	-0.004296
0.005960	-0.005571
0.005980	-0.004296
0.006000	-0.004933
0.006020	-0.005252
0.006040	-0.003659
0.006060	-0.005252
0.006080	-0.004615
0.006100	-0.005252
0.006120	-0.005889
0.006140	-0.005252
0.006160	-0.006208
0.006180	-0.005252
0.006200	-0.004615
0.006220	-0.005571
0.006240	-0.005252
0.006260	-0.004296
0.006280	-0.005571
0.006300	-0.004296
0.006320	-0.005252
0.006340	-0.003021
0.006360	-0.004615
0.006380	-0.004615
0.006400	-0.004933
0.006420	-0.005252
0.006440	-0.004933
0.006460	-0.004615
0.006480	-0.005252
0.006500	-0.006527
0.006520	-0.006208
0.006540	-0.005252
0.006560	-0.005571
0.006580	-0.004933
0.006600	-0.003977
0.006620	-0.005252
0.006640	-0.004615
0.006660	-0.005252
0.006680	-0.003977
0.006700	-0.004615
0.006720	-0.005889
0.006740	-0.003977
0.006760	-0.005252
0.006780	-0.006527
0.006800	-0.005252
0.006820	-0.005571
0.006840	-0.004933
0.006860	-0.006527
0.006880	-0.005889
0.006900	-0.004296
0.006920	-0.005252
0.006940	-0.004296
0.006960	-0.004615
0.006980	-0.005252
0.007000	-0.004615
0.007020	-0.004296
0.007040	-0.003977
0.007060	-0.005252
0.007080	-0.004933
0.007100	-0.005252
0.007120	-0.006527
0.007140	-0.005571
0.007160	-0.005252
0.007180	-0.005571
0.007200	-0.005252
0.007220	-0.004933
0.007240	-0.005252
0.007260	-0.005252
0.007280	-0.005252
0.007300	-0.003340
0.007320	-0.004615
0.007340	-0.005252
0.007360	-0.004933
0.007380	-0.004615
0.007400	-0.004615
0.007420	-0.005571
0.007440	-0.005571
0.007460	-0.006208
0.007480	-0.006527
0.007500	-0.004933
0.007520	-0.005889
0.007540	-0.005252
0.007560	-0.004615
0.007580	-0.004615
0.007600	-0.004615
0.007620	-0.004615
0.007640	-0.004615
0.007660	-0.003977
0.007680	-0.005252
0.007700	-0.004933
0.007720	-0.005889
0.007740	-0.006846
0.007760	-0.004615
0.007780	-0.005252
0.007800	-0.005252
0.007820	-0.005889
0.007840	-0.004615
0.007860	-0.004933
0.007880	-0.005252
0.007900	-0.004296
0.007920	-0.004615
0.007940	-0.005571
0.007960	-0.004296
0.007980	-0.004933
0.008000	-0.003977
0.008020	-0.005252
0.008040	-0.005571
0.008060	-0.005252
0.008080	-0.006846
0.008100	-0.005889
0.008120	-0.004615
0.008140	-0.004933
0.008160	-0.005889
0.008180	-0.004933
0.008200	-0.005252
0.008220	-0.004296
0.008240	-0.004615
0.008260	-0.002703
0.008280	-0.004615
0.008300	-0.005252
0.008320	-0.004615
0.008340	-0.005252
0.008360	-0.004615
0.008380	-0.005252
0.008400	-0.005252
0.008420	-0.005571
0.008440	-0.007164
0.008460	-0.004933
0.008480	-0.005571
0.008500	-0.004933
0.008520	-0.004296
0.008540	-0.004615
0.008560	-0.004296
0.008580	-0.005252
0.008600	-0.003977
0.008620	-0.004296
0.008640	-0.005252
0.008660	-0.004615
0.008680	-0.004615
0.008700	-0.006208
0.008720	-0.004933
0.008740	-0.005889
0.008760	-0.005252
0.008780	-0.006208
0.008800	-0.005571
0.008820	-0.004615
0.008840	-0.004933
0.008860	-0.004615
0.008880	-0.003659
0.008900	-0.005571
0.008920	-0.004296
0.008940	-0.005252
0.008960	-0.004296
0.008980	-0.005571
0.009000	-0.005571
0.009020	-0.005571
0.009040	-0.006527
0.009060	-0.005889
0.009080	-0.004296
0.009100	-0.006208
0.009120	-0.005889
0.009140	-0.004296
0.009160	-0.004933
0.009180	-0.004933
0.009200	-0.005252
0.009220	-0.003340
0.009240	-0.005252
0.009260	-0.005252
0.009280	-0.004615
0.009300	-0.004615
0.009320	-0.005252
0.009340	-0.004933
0.009360	-0.005571
0.009380	-0.005252
0.009400	-0.005889
0.009420	-0.004615
0.009440	-0.005571
0.009460	-0.004296
0.009480	-0.004296
0.009500	-0.004615
0.009520	-0.004933
0.009540	-0.005252
0.009560	-0.004615
0.009580	-0.004296
0.009600	-0.005252
0.009620	-0.004933
0.009640	-0.005571
0.009660	-0.006527
0.009680	-0.004933
0.009700	-0.005252
0.009720	-0.004296
0.009740	-0.005571
0.009760	-0.004933
0.009780	-0.004615
0.009800	-0.004933
0.009820	-0.004615
0.009840	-0.004296
0.009860	-0.005252
0.009880	-0.004615
0.009900	-0.004615
0.009920	-0.004933
0.009940	-0.004933
0.009960	-0.005252
0.009980	-0.005252
0.010000	-0.006527
0.010020	-0.005889
0.010040	-0.004615
0.010060	-0.005889
0.010080	-0.004615
0.010100	-0.004615
0.010120	-0.004933
0.010140	-0.004933
0.010160	-0.004615
0.010180	-0.003340
0.010200	-0.004615
0.010220	-0.005252
0.010240	-0.005252
0.010260	-0.005252
0.010280	-0.005252
0.010300	-0.005571
0.010320	-0.005252
0.010340	-0.004615
0.010360	-0.006208
0.010380	-0.004933
0.010400	-0.005252
0.010420	-0.004615
0.010440	-0.004615
0.010460	-0.004615
0.010480	-0.004296
0.010500	-0.004933
0.010520	-0.004296
0.010540	-0.003977
0.010560	-0.004615
0.010580	-0.004296
0.010600	-0.005571
0.010620	-0.006527
0.010640	-0.004933
0.010660	-0.005571
0.010680	-0.004933
0.010700	-0.005571
0.010720	-0.005571
0.010740	-0.004615
0.010760	-0.004615
0.010780	-0.004296
0.010800	-0.003977
0.010820	-0.005571
0.010840	-0.003977
0.010860	-0.005252
0.010880	-0.004615
0.010900	-0.004615
0.010920	-0.005889
0.010940	-0.005571
0.010960	-0.005889
0.010980	-0.005889
0.011000	-0.004933
0.011020	-0.005571
0.011040	-0.005252
0.011060	-0.005252
0.011080	-0.004615
0.011100	-0.003659
0.011120	-0.005252
0.011140	-0.003659
0.011160	-0.005252
0.011180	-0.005252
0.011200	-0.005252
0.011220	-0.005571
0.011240	-0.004933
0.011260	-0.004933
0.011280	-0.005571
0.011300	-0.005571
0.011320	-0.005571
0.011340	-0.004933
0.011360	-0.004615
0.011380	-0.004615
0.011400	-0.003659
0.011420	-0.004615
0.011440	-0.004933
0.011460	-0.004296
0.011480	-0.004296
0.011500	-0.004615
0.011520	-0.004933
0.011540	-0.004933
0.011560	-0.005571
0.011580	-0.006208
0.011600	-0.005252
0.011620	-0.005571
0.011640	-0.005252
0.011660	-0.005252
0.011680	-0.005571
0.011700	-0.005252
0.011720	-0.004615
0.011740	-0.004615
0.011760	-0.004296
0.011780	-0.005252
0.011800	-0.003659
0.011820	-0.004933
0.011840	-0.005889
0.011860	-0.004933
0.011880	-0.005889
0.011900	-0.005571
0.011920	-0.006208
0.011940	-0.005889
0.011960	-0.004296
0.011980	-0.005571
0.012000	-0.004615
0.012020	-0.004296
0.012040	-0.005252
0.012060	-0.004615
0.012080	-0.004296
0.012100	-0.003659
0.012120	-0.004933
0.012140	-0.005252
0.012160	-0.004933
0.012180	-0.005889
0.012200	-0.004615
0.012220	-0.004296
0.012240	-0.005889
0.012260	-0.005252
0.012280	-0.005252
0.012300	-0.005252
0.012320	-0.004933
0.012340	-0.004933
0.012360	-0.003340
0.012380	-0.004296
0.012400	-0.004615
0.012420	-0.004296
0.012440	-0.004615
0.012460	-0.004615
0.012480	-0.005889
0.012500	-0.004933
0.012520	-0.005571
0.012540	-0.006527
0.012560	-0.004933
0.012580	-0.005889
0.012600	-0.004933
0.012620	-0.005252
0.012640	-0.005252
0.012660	-0.003977
0.012680	-0.005252
0.012700	-0.003659
0.012720	-0.004296
0.012740	-0.005889
0.012760	-0.004933
0.012780	-0.005252
0.012800	-0.005889
0.012820	-0.004615
0.012840	-0.005252
0.012860	-0.005252
0.012880	-0.005571
0.012900	-0.005571
0.012920	-0.004615
0.012940	-0.005252
0.012960	-0.004615
0.012980	-0.004615
0.013000	-0.005252
0.013020	-0.004615
0.013040	-0.004615
0.013060	-0.003977
0.013080	-0.004933
0.013100	-0.005889
0.013120	-0.004933
0.013140	-0.006208
0.013160	-0.005252
0.013180	-0.005252
0.013200	-0.004933
0.013220	-0.005252
0.013240	-0.005252
0.013260	-0.004933
0.013280	-0.004615
0.013300	-0.004296
0.013320	-0.003021
0.013340	-0.004615
0.013360	-0.005252
0.013380	-0.005252
0.013400	-0.005252
0.013420	-0.004933
0.013440	-0.005889
0.013460	-0.004933
0.013480	-0.005252
0.013500	-0.006527
0.013520	-0.004615
0.013540	-0.005571
0.013560	-0.005252
0.013580	-0.004296
0.013600	-0.004615
0.013620	-0.004615
0.013640	-0.005252
0.013660	-0.004615
0.013680	-0.003977
0.013700	-0.005571
0.013720	-0.004933
0.013740	-0.005252
0.013760	-0.006527
0.013780	-0.004933
0.013800	-0.005252
0.013820	-0.004933
0.013840	-0.005889
0.013860	-0.005571
0.013880	-0.003977
0.013900	-0.004933
0.013920	-0.004296
0.013940	-0.004933
0.013960	-0.005252
0.013980	-0.005571
0.014000	-0.005252
0.014020	-0.004933
0.014040	-0.004615
0.014060	-0.004933
0.014080	-0.005571
0.014100	-0.005889
0.014120	-0.005889
0.014140	-0.005252
0.014160	-0.005571
0.014180	-0.004615
0.014200	-0.004615
0.014220	-0.005252
0.014240	-0.005252
0.014260	-0.004615
0.014280	-0.002703
0.014300	-0.004296
0.014320	-0.004933
0.014340	-0.004615
0.014360	-0.005252
0.014380	-0.004296
0.014400	-0.006208
0.014420	-0.004933
0.014440	-0.005252
0.014460	-0.005252
0.014480	-0.004933
0.014500	-0.004615
0.014520	-0.005252
0.014540	-0.003977
0.014560	-0.004933
0.014580	-0.004615
0.014600	-0.004615
0.014620	-0.004615
0.014640	-0.004296
0.014660	-0.004933
0.014680	-0.004933
0.014700	-0.005889
0.014720	-0.006208
0.014740	-0.004615
0.014760	-0.004933
0.014780	-0.004933
0.014800	-0.005571
0.014820	-0.006208
0.014840	-0.004296
0.014860	-0.004296
0.014880	-0.004296
0.014900	-0.004615
0.014920	-0.005252
0.014940	-0.005252
0.014960	-0.005252
0.014980	-0.004933
0.015000	-0.004615
0.015020	-0.005571
0.015040	-0.004933
0.015060	-0.005889
0.015080	-0.005889
0.015100	-0.004615
0.015120	-0.004933
0.015140	-0.004933
0.015160	-0.004615
0.015180	-0.005252
0.015200	-0.004933
0.015220	-0.004615
0.015240	-0.003021
0.015260	-0.004615
0.015280	-0.004933
0.015300	-0.004933
0.015320	-0.005252
0.015340	-0.004296
0.015360	-0.005252
0.015380	-0.005571
0.015400	-0.005252
0.015420	-0.005889
0.015440	-0.004296
0.015460	-0.005252
0.015480	-0.004933
0.015500	-0.003977
0.015520	-0.004933
0.015540	-0.004296
0.015560	-0.004615
0.015580	-0.003977
0.015600	-0.003340
0.015620	-0.004933
0.015640	-0.005252
0.015660	-0.005252
0.015680	-0.006527
0.015700	-0.004933
0.015720	-0.005889
0.015740	-0.004615
0.015760	-0.005889
0.015780	-0.005889
0.015800	-0.004615
0.015820	-0.005252
0.015840	-0.003659
0.015860	-0.004933
0.015880	-0.004615
0.015900	-0.003340
0.015920	-0.005252
0.015940	-0.003977
0.015960	-0.004933
0.015980	-0.005571
0.016000	-0.004615
0.016020	-0.006527
0.016040	-0.005252
0.016060	-0.004615
0.016080	-0.005571
0.016100	-0.004933
0.016120	-0.004933
0.016140	-0.004933
0.016160	-0.004615
0.016180	-0.003977
0.016200	-0.003021
0.016220	-0.004296
0.016240	-0.005252
0.016260	-0.004615
0.016280	-0.004615
0.016300	-0.005571
0.016320	-0.005252
0.016340	-0.004933
0.016360	-0.005252
0.016380	-0.005889
0.016400	-0.005252
0.016420	-0.005252
0.016440	-0.004296
0.016460	-0.004296
0.016480	-0.004933
0.016500	-0.004933
0.016520	-0.004615
0.016540	-0.004296
0.016560	-0.004296
0.016580	-0.005252
0.016600	-0.004296
0.016620	-0.004615
0.016640	-0.005889
0.016660	-0.004296
0.016680	-0.005252
0.016700	-0.005571
0.016720	-0.005571
0.016740	-0.005252
0.016760	-0.004615
0.016780	-0.004933
0.016800	-0.003977
0.016820	-0.004615
0.016840	-0.004933
0.016860	-0.004296
0.016880	-0.004615
0.016900	-0.004296
0.016920	-0.004296
0.016940	-0.005571
0.016960	-0.004933
0.016980	-0.006208
0.017000	-0.005889
0.017020	-0.004933
0.017040	-0.004933
0.017060	-0.004615
0.017080	-0.004296
0.017100	-0.005252
0.017120	-0.004933
0.017140	-0.004615
0.017160	-0.002703
0.017180	-0.004615
0.017200	-0.004615
0.017220	-0.004296
0.017240	-0.005252
0.017260	-0.005252
0.017280	-0.004296
0.017300	-0.004933
0.017320	-0.005889
0.017340	-0.005571
0.017360	-0.004615
0.017380	-0.004933
0.017400	-0.004296
0.017420	-0.004296
0.017440	-0.004615
0.017460	-0.004296
0.017480	-0.004933
0.017500	-0.003659
0.017520	-0.004296
0.017540	-0.005571
0.017560	-0.004296
0.017580	-0.005571
0.017600	-0.006527
0.017620	-0.004296
0.017640	-0.005571
0.017660	-0.004615
0.017680	-0.005889
0.017700	-0.005571
0.017720	-0.004615
0.017740	-0.005252
0.017760	-0.004615
0.017780	-0.003977
0.017800	-0.005252
0.017820	-0.003977
0.017840	-0.004296
0.017860	-0.004933
0.017880	-0.005252
0.017900	-0.005252
0.017920	-0.005252
0.017940	-0.006208
0.017960	-0.006208
0.017980	-0.004296
0.018000	-0.005571
0.018020	-0.005252
0.018040	-0.004615
0.018060	-0.004933
0.018080	-0.003977
0.018100	-0.004296
0.018120	-0.003659
0.018140	-0.005252
0.018160	-0.005252
0.018180	-0.004933
0.018200	-0.005571
0.018220	-0.005571
0.018240	-0.004933
0.018260	-0.005252
0.018280	-0.004933
0.018300	-0.006208
0.018320	-0.005252
0.018340	-0.004933
0.018360	-0.005571
0.018380	-0.003340
0.018400	-0.004615
0.018420	-0.005252
0.018440	-0.004933
0.018460	-0.004615
0.018480	-0.003977
0.018500	-0.005252
0.018520	-0.004615
0.018540	-0.005571
0.018560	-0.006527
0.018580	-0.005252
0.018600	-0.005252
0.018620	-0.005252
0.018640	-0.005571
0.018660	-0.005252
0.018680	-0.004615
0.018700	-0.004933
0.018720	-0.004296
0.018740	-0.003659
0.018760	-0.005571
0.018780	-0.004615
0.018800	-0.004615
0.018820	-0.004933
0.018840	-0.005252
0.018860	-0.005252
0.018880	-0.004615
0.018900	-0.006208
0.018920	-0.006208
0.018940	-0.004615
0.018960	-0.004933
0.018980	-0.004296
0.019000	-0.004296
0.019020	-0.005252
0.019040	-0.004615
0.019060	-0.004615
0.019080	-0.003021
0.019100	-0.004615
0.019120	-0.005252
0.019140	-0.004933
0.019160	-0.005252
0.019180	-0.005571
0.019200	-0.005571
0.019220	-0.005252
0.019240	-0.005252
0.019260	-0.005252
0.019280	-0.004615
0.019300	-0.004615
0.019320	-0.004933
0.019340	-0.003977
0.019360	-0.004296
0.019380	-0.004296
0.019400	-0.004615
0.019420	-0.005252
0.019440	-0.003977
0.019460	-0.004933
0.019480	-0.004615
0.019500	-0.005571
0.019520	-0.006527
0.019540	-0.004933
0.019560	-0.004933
0.019580	-0.004615
0.019600	-0.005571
0.019620	-0.004933
0.019640	-0.004615
0.019660	-0.005252
0.019680	-0.004615
0.019700	-0.003977
0.019720	-0.004615
0.019740	-0.003977
0.019760	-0.005252
0.019780	-0.005252
0.019800	-0.005252
0.019820	-0.005571
0.019840	-0.005252
0.019860	-0.006208
0.019880	-0.005571
0.019900	-0.005252
0.019920	-0.005252
0.019940	-0.004933
0.019960	-0.003977
0.019980	-0.005252
0.020000	-0.003977
0.020020	-0.004296
0.020040	-0.003659
0.020060	-0.004296
0.020080	-0.005252
0.020100	-0.004615
0.020120	-0.005252
0.020140	-0.005252
0.020160	-0.004933
0.020180	-0.005252
0.020200	-0.005252
0.020220	-0.005571
0.020240	-0.004933
0.020260	-0.004615
0.020280	-0.004296
0.020300	-0.003659
0.020320	-0.004296
0.020340	-0.004933
0.020360	-0.004615
0.020380	-0.004615
0.020400	-0.004296
0.020420	-0.005252
0.020440	-0.005252
0.020460	-0.004933
0.020480	-0.005571
0.020500	-0.004933
0.020520	-0.005252
0.020540	-0.004296
0.020560	-0.003977
0.020580	-0.004296
0.020600	-0.003977
0.020620	-0.004296
0.020640	-0.003659
0.020660	-0.004615
0.020680	-0.004933
0.020700	-0.004615
0.020720	-0.005252
0.020740	-0.005571
0.020760	-0.004933
0.020780	-0.005571
0.020800	-0.004933
0.020820	-0.005252
0.020840	-0.006208
0.020860	-0.004296
0.020880	-0.004615
0.020900	-0.004296
0.020920	-0.004933
0.020940	-0.005252
0.020960	-0.003977
0.020980	-0.004615
0.021000	-0.003977
0.021020	-0.004615
0.021040	-0.005571
0.021060	-0.005252
0.021080	-0.005889
0.021100	-0.005252
0.021120	-0.004933
0.021140	-0.006208
0.021160	-0.004615
0.021180	-0.004615
0.021200	-0.004933
0.021220	-0.003977
0.021240	-0.004615
0.021260	-0.002703
0.021280	-0.004296
0.021300	-0.004615
0.021320	-0.004615
0.021340	-0.005252
0.021360	-0.004615
0.021380	-0.004933
0.021400	-0.004296
0.021420	-0.005571
0.021440	-0.006208
0.021460	-0.004615
0.021480	-0.004933
0.021500	-0.004615
0.021520	-0.004296
0.021540	-0.004933
0.021560	-0.004615
0.021580	-0.004296
0.021600	-0.003659
0.021620	-0.003659
0.021640	-0.004615
0.021660	-0.004296
0.021680	-0.005252
0.021700	-0.006208
0.021720	-0.004615
0.021740	-0.004933
0.021760	-0.004933
0.021780	-0.005889
0.021800	-0.005252
0.021820	-0.004296
0.021840	-0.005252
0.021860	-0.003977
0.021880	-0.004296
0.021900	-0.005252
0.021920	-0.004615
0.021940	-0.003977
0.021960	-0.004296
0.021980	-0.004296
0.022000	-0.005252
0.022020	-0.004933
0.022040	-0.005571
0.022060	-0.005571
0.022080	-0.003977
0.022100	-0.005252
0.022120	-0.004615
0.022140	-0.004296
0.022160	-0.005252
0.022180	-0.004615
0.022200	-0.003977
0.022220	-0.002703
0.022240	-0.003977
0.022260	-0.004933
0.022280	-0.005252
0.022300	-0.005252
0.022320	-0.005252
0.022340	-0.004296
0.022360	-0.005252
0.022380	-0.005889
0.022400	-0.005571
0.022420	-0.004296
0.022440	-0.004933
0.022460	-0.004296
0.022480	-0.003340
0.022500	-0.003977
0.022520	-0.004296
0.022540	-0.004615
0.022560	-0.003659
0.022580	-0.003659
0.022600	-0.005252
0.022620	-0.004615
0.022640	-0.005571
0.022660	-0.006527
0.022680	-0.004933
0.022700	-0.005571
0.022720	-0.004615
0.022740	-0.005571
0.022760	-0.005889
0.022780	-0.003659
0.022800	-0.004296
0.022820	-0.003977
0.022840	-0.004296
0.022860	-0.005252
0.022880	-0.004615
0.022900	-0.004615
0.022920	-0.004615
0.022940	-0.004615
0.022960	-0.005252
0.022980	-0.004615
0.023000	-0.005252
0.023020	-0.005571
0.023040	-0.003977
0.023060	-0.004615
0.023080	-0.004615
0.023100	-0.003659
0.023120	-0.004296
0.023140	-0.003977
0.023160	-0.003977
0.023180	-0.002703
0.023200	-0.003340
0.023220	-0.005252
0.023240	-0.004615
0.023260	-0.005252
0.023280	-0.004615
0.023300	-0.004296
0.023320	-0.004615
0.023340	-0.004933
0.023360	-0.005252
0.023380	-0.004296
0.023400	-0.004615
0.023420	-0.004615
0.023440	-0.003659
0.023460	-0.004296
0.023480	-0.004615
0.023500	-0.004296
0.023520	-0.003340
0.023540	-0.003340
0.023560	-0.004615
0.023580	-0.004615
0.023600	-0.004933
0.023620	-0.005889
0.023640	-0.005252
0.023660	-0.004296
0.023680	-0.003659
0.023700	-0.005571
0.023720	-0.004933
0.023740	-0.003977
0.023760	-0.005252
0.023780	-0.003340
0.023800	-0.003977
0.023820	-0.004933
0.023840	-0.003659
0.023860	-0.004615
0.023880	-0.003021
0.023900	-0.004296
0.023920	-0.004615
0.023940	-0.003659
0.023960	-0.005252
0.023980	-0.005252
0.024000	-0.004296
0.024020	-0.004615
0.024040	-0.003659
0.024060	-0.003659
0.024080	-0.003977
0.024100	-0.004296
0.024120	-0.003977
0.024140	-0.003021
0.024160	-0.003659
0.024180	-0.004296
0.024200	-0.003659
0.024220	-0.003977
0.024240	-0.004296
0.024260	-0.004296
0.024280	-0.004296
0.024300	-0.004933
0.024320	-0.005571
0.024340	-0.003659
0.024360	-0.003977
0.024380	-0.003659
0.024400	-0.003659
0.024420	-0.003340
0.024440	-0.003340
0.024460	-0.003659
0.024480	-0.002703
0.024500	-0.002384
0.024520	-0.004296
0.024540	-0.003977
0.024560	-0.004296
0.024580	-0.004933
0.024600	-0.003977
0.024620	-0.003659
0.024640	-0.003977
0.024660	-0.004296
0.024680	-0.004296
0.024700	-0.003021
0.024720	-0.003977
0.024740	-0.002384
0.024760	-0.003340
0.024780	-0.003340
0.024800	-0.002703
0.024820	-0.002703
0.024840	-0.002065
0.024860	-0.003021
0.024880	-0.003977
0.024900	-0.002384
0.024920	-0.003977
0.024940	-0.003977
0.024960	-0.002703
0.024980	-0.003340
0.025000	-0.003340
0.025020	-0.003021
0.025040	-0.002703
0.025060	-0.002065
0.025080	-0.002065
0.025100	-0.000791
0.025120	-0.001428
0.025140	-0.002384
0.025160	-0.002384
0.025180	-0.001747
0.025200	-0.002384
0.025220	-0.002065
0.025240	-0.002065
0.025260	-0.002703
0.025280	-0.002703
0.025300	-0.001109
0.025320	-0.001428
0.025340	-0.000791
0.025360	-0.000472
0.025380	-0.001109
0.025400	-0.000791
0.025420	-0.000791
0.025440	0.000165
0.025460	0.000165
0.025480	0.000165
0.025500	-0.000153
0.025520	-0.000472
0.025540	-0.000472
0.025560	0.001440
0.025580	0.000484
0.025600	0.000803
0.025620	0.000803
0.025640	0.001121
0.025660	0.003033
0.025680	0.002077
0.025700	0.003352
0.025720	0.003352
0.025740	0.003352
0.025760	0.004627
0.025780	0.004945
0.025800	0.005583
0.025820	0.005902
0.025840	0.006539
0.025860	0.006858
0.025880	0.006858
0.025900	0.008451
0.025920	0.009726
0.025940	0.010363
0.025960	0.012275
0.025980	0.012912
0.026000	0.013868
0.026020	0.015780
0.026040	0.016737
0.026060	0.019286
0.026080	0.019286
0.026100	0.021835
0.026120	0.022791
0.026140	0.024066
0.026160	0.026297
0.026180	0.026615
0.026200	0.028209
0.026220	0.028846
0.026240	0.028528
0.026260	0.031396
0.026280	0.031077
0.026300	0.032670
0.026320	0.032989
0.026340	0.034264
0.026360	0.035538
0.026380	0.035857
0.026400	0.038406
0.026420	0.038725
0.026440	0.039044
0.026460	0.040637
0.026480	0.041275
0.026500	0.042549
0.026520	0.044461
0.026540	0.044461
0.026560	0.046692
0.026580	0.046692
0.026600	0.047967
0.026620	0.048923
0.026640	0.049560
0.026660	0.051791
0.026680	0.051791
0.026700	0.052428
0.026720	0.053384
0.026740	0.054340
0.026760	0.055934
0.026780	0.055934
0.026800	0.055934
0.026820	0.056890
0.026840	0.058483
0.026860	0.059439
0.026880	0.060076
0.026900	0.060714
0.026920	0.061351
0.026940	0.062626
0.026960	0.062945
0.026980	0.064219
0.027000	0.065813
0.027020	0.067406
0.027040	0.067087
0.027060	0.068681
0.027080	0.068999
0.027100	0.069955
0.027120	0.071230
0.027140	0.071230
0.027160	0.073461
0.027180	0.073461
0.027200	0.073780
0.027220	0.076329
0.027240	0.076329
0.027260	0.077285
0.027280	0.078560
0.027300	0.079197
0.027320	0.080472
0.027340	0.081746
0.027360	0.082702
0.027380	0.082702
0.027400	0.082702
0.027420	0.084296
0.027440	0.083977
0.027460	0.083340
0.027480	0.085571
0.027500	0.085571
0.027520	0.086527
0.027540	0.087164
0.027560	0.088120
0.027580	0.087483
0.027600	0.088120
0.027620	0.091307
0.027640	0.092263
0.027660	0.090351
0.027680	0.091944
0.027700	0.092900
0.027720	0.094812
0.027740	0.094812
0.027760	0.092900
0.027780	0.093537
0.027800	0.095131
0.027820	0.096406
0.027840	0.096406
0.027860	0.095131
0.027880	0.096406
0.027900	0.101823
0.027920	0.101823
0.027940	0.098636
0.027960	0.098318
0.027980	0.100548
0.028000	0.100867
0.028020	0.102142
0.028040	0.100867
0.028060	0.101504
0.028080	0.103735
0.028100	0.105647
0.028120	0.105328
0.028140	0.102460
0.028160	0.101186
0.028180	0.104054
0.028200	0.105328
0.028220	0.106603
0.028240	0.105966
0.028260	0.106922
0.028280	0.110746
0.028300	0.110746
0.028320	0.110427
0.028340	0.107240
0.028360	0.105966
0.028380	0.110746
0.028400	0.111383
0.028420	0.110109
0.028440	0.112021
0.028460	0.112339
0.028480	0.114570
0.028500	0.112339
0.028520	0.112021
0.028540	0.110427
0.028560	0.111702
0.028580	0.115845
0.028600	0.116801
0.028620	0.115845
0.028640	0.115845
0.028660	0.118075
0.028680	0.119350
0.028700	0.116801
0.028720	0.116163
0.028740	0.115845
0.028760	0.116801
0.028780	0.119669
0.028800	0.121581
0.028820	0.119988
0.028840	0.120306
0.028860	0.121581
0.028880	0.122537
0.028900	0.121262
0.028920	0.119669
0.028940	0.122218
0.028960	0.123174
0.028980	0.124768
0.029000	0.125086
0.029020	0.123812
0.029040	0.124768
0.029060	0.125724
0.029080	0.127636
0.029100	0.126042
0.029120	0.122856
0.029140	0.126680
0.029160	0.127954
0.029180	0.129548
0.029200	0.129548
0.029220	0.128592
0.029240	0.129229
0.029260	0.130504
0.029280	0.132735
0.029300	0.131460
0.029320	0.129548
0.029340	0.131141
0.029360	0.132416
0.029380	0.132735
0.029400	0.134647
0.029420	0.133053
0.029440	0.132735
0.029460	0.133372
0.029480	0.134965
0.029500	0.134965
0.029520	0.134328
0.029540	0.136240
0.029560	0.137833
0.029580	0.138471
0.029600	0.137833
0.029620	0.136559
0.029640	0.138789
0.029660	0.139745
0.029680	0.140383
0.029700	0.138471
0.029720	0.136240
0.029740	0.138152
0.029760	0.143251
0.029780	0.143888
0.029800	0.140383
0.029820	0.140383
0.029840	0.141658
0.029860	0.142932
0.029880	0.143888
0.029900	0.144526
0.029920	0.143251
0.029940	0.145800
0.029960	0.148031
0.029980	0.146438
0.030000	0.144207
0.030020	0.144844
0.030040	0.146438
0.030060	0.147075
0.030080	0.146438
0.030100	0.147712
0.030120	0.146119
0.030140	0.149943
0.030160	0.150899
0.030180	0.150262
0.030200	0.148987
0.030220	0.148031
0.030240	0.152174
0.030260	0.153130
0.030280	0.151218
0.030300	0.149943
0.030320	0.150899
0.030340	0.153449
0.030360	0.154405
0.030380	0.151536
0.030400	0.151536
0.030420	0.152174
0.030440	0.155361
0.030460	0.155679
0.030480	0.152174
0.030500	0.152492
0.030520	0.157273
0.030540	0.158547
0.030560	0.157910
0.030580	0.154723
0.030600	0.155042
0.030620	0.157273
0.030640	0.158547
0.030660	0.156954
0.030680	0.155361
0.030700	0.156635
0.030720	0.160141
0.030740	0.160459
0.030760	0.159822
0.030780	0.158866
0.030800	0.158547
0.030820	0.160459
0.030840	0.161415
0.030860	0.162053
0.030880	0.160141
0.030900	0.162053
0.030920	0.163646
0.030940	0.164602
0.030960	0.162690
0.030980	0.159503
0.031000	0.162690
0.031020	0.165877
0.031040	0.164283
0.031060	0.163965
0.031080	0.161734
0.031100	0.164921
0.031120	0.169382
0.031140	0.168426
0.031160	0.164602
0.031180	0.163009
0.031200	0.167152
0.031220	0.170976
0.031240	0.169701
0.031260	0.167152
0.031280	0.165877
0.031300	0.167789
0.031320	0.171294
0.031340	0.169382
0.031360	0.166833
0.031380	0.167470
0.031400	0.170657
0.031420	0.172888
0.031440	0.170657
0.031460	0.169701
0.031480	0.170976
0.031500	0.173525
0.031520	0.174162
0.031540	0.170976
0.031560	0.171613
0.031580	0.171932
0.031600	0.174162
0.031620	0.175118
0.031640	0.172569
0.031660	0.172250
0.031680	0.175118
0.031700	0.177031
0.031720	0.175437
0.031740	0.173206
0.031760	0.172569
0.031780	0.174800
0.031800	0.177668
0.031820	0.179580
0.031840	0.175756
0.031860	0.175756
0.031880	0.177031
0.031900	0.179261
0.031920	0.177668
0.031940	0.175437
0.031960	0.175437
0.031980	0.177987
0.032000	0.179261
0.032020	0.179899
0.032040	0.177031
0.032060	0.178305
0.032080	0.178943
0.032100	0.181492
0.032120	0.180217
0.032140	0.177349
0.032160	0.178943
0.032180	0.182129
0.032200	0.182129
0.032220	0.180536
0.032240	0.178624
0.032260	0.179580
0.032280	0.182767
0.032300	0.182448
0.032320	0.180217
0.032340	0.177349
0.032360	0.180855
0.032380	0.184041
0.032400	0.183404
0.032420	0.182129
0.032440	0.181811
0.032460	0.182448
0.032480	0.184679
0.032500	0.184041
0.032520	0.182767
0.032540	0.180855
0.032560	0.183404
0.032580	0.185635
0.032600	0.184679
0.032620	0.182767
0.032640	0.181492
0.032660	0.184360
0.032680	0.186591
0.032700	0.184360
0.032720	0.182767
0.032740	0.183085
0.032760	0.185953
0.032780	0.188184
0.032800	0.185635
0.032820	0.184360
0.032840	0.184041
0.032860	0.187547
0.032880	0.187228
0.032900	0.185635
0.032920	0.183723
0.032940	0.184997
0.032960	0.186272
0.032980	0.188503
0.033000	0.184997
0.033020	0.183723
0.033040	0.185953
0.033060	0.189140
0.033080	0.188503
0.033100	0.185953
0.033120	0.186591
0.033140	0.188184
0.033160	0.189778
0.033180	0.189459
0.033200	0.186272
0.033220	0.185635
0.033240	0.187866
0.033260	0.189459
0.033280	0.189140
0.033300	0.185953
0.033320	0.185635
0.033340	0.188822
0.033360	0.190415
0.033380	0.188503
0.033400	0.187228
0.033420	0.187228
0.033440	0.189778
0.033460	0.191052
0.033480	0.190734
0.033500	0.187228
0.033520	0.188503
0.033540	0.190096
0.033560	0.190734
0.033580	0.189140
0.033600	0.187866
0.033620	0.188822
0.033640	0.190734
0.033660	0.191052
0.033680	0.189459
0.033700	0.187547
0.033720	0.189140
0.033740	0.192327
0.033760	0.191690
0.033780	0.189140
0.033800	0.188503
0.033820	0.190415
0.033840	0.192964
0.033860	0.190734
0.033880	0.189140
0.033900	0.188184
0.033920	0.189140
0.033940	0.192327
0.033960	0.189778
0.033980	0.189140
0.034000	0.187866
0.034020	0.191052
0.034040	0.192646
0.034060	0.190096
0.034080	0.188822
0.034100	0.188822
0.034120	0.190415
0.034140	0.192008
0.034160	0.190734
0.034180	0.188503
0.034200	0.188822
0.034220	0.190415
0.034240	0.191690
0.034260	0.187866
0.034280	0.187228
0.034300	0.188822
0.034320	0.190096
0.034340	0.191052
0.034360	0.189140
0.034380	0.187228
0.034400	0.188503
0.034420	0.190734
0.034440	0.191371
0.034460	0.187547
0.034480	0.187228
0.034500	0.188503
0.034520	0.190096
0.034540	0.188822
0.034560	0.187547
0.034580	0.186909
0.034600	0.188184
0.034620	0.188503
0.034640	0.188822
0.034660	0.185953
0.034680	0.186909
0.034700	0.189140
0.034720	0.189459
0.034740	0.188503
0.034760	0.185953
0.034780	0.186591
0.034800	0.188184
0.034820	0.187866
0.034840	0.187866
0.034860	0.184041
0.034880	0.183085
0.034900	0.188184
0.034920	0.186909
0.034940	0.185635
0.034960	0.184041
0.034980	0.185635
0.035000	0.186909
0.035020	0.185953
0.035040	0.185953
0.035060	0.183723
0.035080	0.184360
0.035100	0.187228
0.035120	0.185953
0.035140	0.183404
0.035160	0.182129
0.035180	0.184360
0.035200	0.185316
0.035220	0.183404
0.035240	0.181811
0.035260	0.181811
0.035280	0.183404
0.035300	0.184997
0.035320	0.183723
0.035340	0.180536
0.035360	0.179580
0.035380	0.181811
0.035400	0.183723
0.035420	0.180536
0.035440	0.177668
0.035460	0.177668
0.035480	0.179580
0.035500	0.180217
0.035520	0.178624
0.035540	0.177349
0.035560	0.177031
0.035580	0.178305
0.035600	0.179580
0.035620	0.176075
0.035640	0.175756
0.035660	0.177987
0.035680	0.179261
0.035700	0.178943
0.035720	0.176393
0.035740	0.175437
0.035760	0.176075
0.035780	0.176393
0.035800	0.177031
0.035820	0.174162
0.035840	0.172250
0.035860	0.175756
0.035880	0.175756
0.035900	0.175756
0.035920	0.172569
0.035940	0.171932
0.035960	0.173844
0.035980	0.174481
0.036000	0.174162
0.036020	0.172569
0.036040	0.170657
0.036060	0.172569
0.036080	0.173206
0.036100	0.171613
0.036120	0.170020
0.036140	0.169701
0.036160	0.171932
0.036180	0.170657
0.036200	0.170020
0.036220	0.168745
0.036240	0.167789
0.036260	0.170020
0.036280	0.170657
0.036300	0.168745
0.036320	0.166196
0.036340	0.167470
0.036360	0.170338
0.036380	0.168108
0.036400	0.165877
0.036420	0.164602
0.036440	0.164602
0.036460	0.166514
0.036480	0.165877
0.036500	0.164283
0.036520	0.162371
0.036540	0.163646
0.036560	0.165558
0.036580	0.163965
0.036600	0.161734
0.036620	0.162690
0.036640	0.163327
0.036660	0.163009
0.036680	0.161415
0.036700	0.160778
0.036720	0.159503
0.036740	0.160141
0.036760	0.161734
0.036780	0.159503
0.036800	0.155998
0.036820	0.157910
0.036840	0.157910
0.036860	0.159185
0.036880	0.157273
0.036900	0.155679
0.036920	0.156635
0.036940	0.156954
0.036960	0.157910
0.036980	0.155998
0.037000	0.153767
0.037020	0.154723
0.037040	0.155679
0.037060	0.155998
0.037080	0.153130
0.037100	0.151218
0.037120	0.152174
0.037140	0.152174
0.037160	0.152811
0.037180	0.151218
0.037200	0.150262
0.037220	0.150899
0.037240	0.152492
0.037260	0.151536
0.037280	0.148987
0.037300	0.147712
0.037320	0.150580
0.037340	0.149943
0.037360	0.148668
0.037380	0.146438
0.037400	0.145800
0.037420	0.147075
0.037440	0.147712
0.037460	0.146438
0.037480	0.144207
0.037500	0.143251
0.037520	0.145482
0.037540	0.145163
0.037560	0.144526
0.037580	0.143251
0.037600	0.142295
0.037620	0.143570
0.037640	0.143570
0.037660	0.141658
0.037680	0.140383
0.037700	0.139745
0.037720	0.141339
0.037740	0.140701
0.037760	0.138152
0.037780	0.137515
0.037800	0.137833
0.037820	0.139427
0.037840	0.138152
0.037860	0.136559
0.037880	0.136240
0.037900	0.135921
0.037920	0.137515
0.037940	0.136877
0.037960	0.133372
0.037980	0.134009
0.038000	0.134647
0.038020	0.135284
0.038040	0.133691
0.038060	0.131779
0.038080	0.131141
0.038100	0.131460
0.038120	0.131779
0.038140	0.131141
0.038160	0.128910
0.038180	0.129229
0.038200	0.130823
0.038220	0.130823
0.038240	0.128592
0.038260	0.126998
0.038280	0.128592
0.038300	0.128592
0.038320	0.127954
0.038340	0.126042
0.038360	0.124130
0.038380	0.123812
0.038400	0.125724
0.038420	0.125086
0.038440	0.122856
0.038460	0.120944
0.038480	0.122218
0.038500	0.122856
0.038520	0.122537
0.038540	0.121262
0.038560	0.119350
0.038580	0.119988
0.038600	0.120625
0.038620	0.119988
0.038640	0.118075
0.038660	0.116163
0.038680	0.117757
0.038700	0.117438
0.038720	0.115845
0.038740	0.115207
0.038760	0.114251
0.038780	0.115526
0.038800	0.115207
0.038820	0.114889
0.038840	0.113295
0.038860	0.112021
0.038880	0.113614
0.038900	0.113933
0.038920	0.111702
0.038940	0.110427
0.038960	0.109471
0.038980	0.110746
0.039000	0.111065
0.039020	0.108197
0.039040	0.107240
0.039060	0.106284
0.039080	0.108197
0.039100	0.108197
0.039120	0.105328
0.039140	0.105010
0.039160	0.105647
0.039180	0.106284
0.039200	0.105647
0.039220	0.103735
0.039240	0.103416
0.039260	0.103098
0.039280	0.104054
0.039300	0.102460
0.039320	0.099592
0.039340	0.100230
0.039360	0.100230
0.039380	0.100230
0.039400	0.099592
0.039420	0.097362
0.039440	0.097362
0.039460	0.097680
0.039480	0.098636
0.039500	0.098318
0.039520	0.095131
0.039540	0.095768
0.039560	0.096087
0.039580	0.096406
0.039600	0.094812
0.039620	0.092263
0.039640	0.092900
0.039660	0.092581
0.039680	0.091944
0.039700	0.091944
0.039720	0.089395
0.039740	0.089713
0.039760	0.090669
0.039780	0.090032
0.039800	0.089076
0.039820	0.086845
0.039840	0.088757
0.039860	0.088439
0.039880	0.087483
0.039900	0.086845
0.039920	0.084614
0.039940	0.084933
0.039960	0.085571
0.039980	0.085252
0.040000	0.082702
0.040020	0.081109
0.040040	0.082702
0.040060	0.083340
0.040080	0.081428
0.040100	0.080790
0.040120	0.080472
0.040140	0.080790
0.040160	0.081109
0.040180	0.079834
0.040200	0.078878
0.040220	0.077285
0.040240	0.078241
0.040260	0.077604
0.040280	0.075692
0.040300	0.074098
0.040320	0.074417
0.040340	0.075054
0.040360	0.075692
0.040380	0.073461
0.040400	0.072505
0.040420	0.072186
0.040440	0.074098
0.040460	0.073780
0.040480	0.071867
0.040500	0.070274
0.040520	0.070274
0.040540	0.071867
0.040560	0.070911
0.040580	0.067725
0.040600	0.068362
0.040620	0.067087
0.040640	0.066769
0.040660	0.068362
0.040680	0.065175
0.040700	0.064219
0.040720	0.065175
0.040740	0.065813
0.040760	0.064538
0.040780	0.062307
0.040800	0.062626
0.040820	0.064219
0.040840	0.063582
0.040860	0.061989
0.040880	0.060714
0.040900	0.060076
0.040920	0.061032
0.040940	0.060714
0.040960	0.059120
0.040980	0.056571
0.041000	0.057846
0.041020	0.058802
0.041040	0.057208
0.041060	0.056890
0.041080	0.055615
0.041100	0.055296
0.041120	0.056252
0.041140	0.055934
0.041160	0.055615
0.041180	0.052747
0.041200	0.052428
0.041220	0.053384
0.041240	0.052747
0.041260	0.050516
0.041280	0.050197
0.041300	0.050197
0.041320	0.050835
0.041340	0.049560
0.041360	0.048923
0.041380	0.047648
0.041400	0.047967
0.041420	0.049879
0.041440	0.047967
0.041460	0.046373
0.041480	0.044780
0.041500	0.046373
0.041520	0.046373
0.041540	0.044143
0.041560	0.043824
0.041580	0.042549
0.041600	0.041912
0.041620	0.043824
0.041640	0.041912
0.041660	0.040637
0.041680	0.039363
0.041700	0.041593
0.041720	0.041593
0.041740	0.039363
0.041760	0.038725
0.041780	0.038725
0.041800	0.038725
0.041820	0.038725
0.041840	0.037450
0.041860	0.036494
0.041880	0.035538
0.041900	0.036494
0.041920	0.035857
0.041940	0.032989
0.041960	0.033308
0.041980	0.033626
0.042000	0.034264
0.042020	0.034264
0.042040	0.032989
0.042060	0.031077
0.042080	0.031714
0.042100	0.032033
0.042120	0.032670
0.042140	0.028846
0.042160	0.029484
0.042180	0.029484
0.042200	0.029484
0.042220	0.028528
0.042240	0.026297
0.042260	0.026297
0.042280	0.026934
0.042300	0.026615
0.042320	0.025978
0.042340	0.023747
0.042360	0.024066
0.042380	0.025659
0.042400	0.025659
0.042420	0.023747
0.042440	0.021835
0.042460	0.022473
0.042480	0.023110
0.042500	0.021517
0.042520	0.021517
0.042540	0.019923
0.042560	0.018011
0.042580	0.020561
0.042600	0.020242
0.042620	0.018011
0.042640	0.017055
0.042660	0.017693
0.042680	0.018967
0.042700	0.016737
0.042720	0.016737
0.042740	0.016099
0.042760	0.014824
0.042780	0.016099
0.042800	0.015143
0.042820	0.013550
0.042840	0.012912
0.042860	0.013231
0.042880	0.013868
0.042900	0.012275
0.042920	0.010363
0.042940	0.011000
0.042960	0.010682
0.042980	0.011956
0.043000	0.011000
0.043020	0.009407
0.043040	0.008451
0.043060	0.009088
0.043080	0.010044
0.043100	0.008132
0.043120	0.005264
0.043140	0.006858
0.043160	0.005902
0.043180	0.005583
0.043200	0.005583
0.043220	0.003989
0.043240	0.003671
0.043260	0.004308
0.043280	0.004945
0.043300	0.003989
0.043320	0.001759
0.043340	0.003033
0.043360	0.003033
0.043380	0.002715
0.043400	0.001121
0.043420	0.000484
0.043440	0.001121
0.043460	0.000165
0.043480	-0.000472
0.043500	-0.001747
0.043520	-0.003659
0.043540	-0.001747
0.043560	-0.001747
0.043580	-0.002384
0.043600	-0.004296
0.043620	-0.004296
0.043640	-0.003021
0.043660	-0.003659
0.043680	-0.003977
0.043700	-0.005571
0.043720	-0.006208
0.043740	-0.005252
0.043760	-0.007164
0.043780	-0.007483
0.043800	-0.007802
0.043820	-0.008439
0.043840	-0.007164
0.043860	-0.008120
0.043880	-0.009076
0.043900	-0.009395
0.043920	-0.010351
0.043940	-0.008758
0.043960	-0.009076
0.043980	-0.010351
0.044000	-0.010670
0.044020	-0.011307
0.044040	-0.009395
0.044060	-0.010670
0.044080	-0.012900
0.044100	-0.013538
0.044120	-0.013856
0.044140	-0.013538
0.044160	-0.012900
0.044180	-0.014812
0.044200	-0.015131
0.044220	-0.013538
0.044240	-0.014175
0.044260	-0.014175
0.044280	-0.015768
0.044300	-0.013856
0.044320	-0.014494
0.044340	-0.014494
0.044360	-0.015450
0.044380	-0.017680
0.044400	-0.017362
0.044420	-0.017362
0.044440	-0.016406
0.044460	-0.017680
0.044480	-0.019274
0.044500	-0.017680
0.044520	-0.017999
0.044540	-0.017043
0.044560	-0.018318
0.044580	-0.019274
0.044600	-0.018955
0.044620	-0.018318
0.044640	-0.017999
0.044660	-0.017999
0.044680	-0.020867
0.044700	-0.019593
0.044720	-0.019593
0.044740	-0.020549
0.044760	-0.019911
0.044780	-0.021186
0.044800	-0.020549
0.044820	-0.019911
0.044840	-0.020230
0.044860	-0.020549
0.044880	-0.021823
0.044900	-0.019911
0.044920	-0.019593
0.044940	-0.019911
0.044960	-0.020549
0.044980	-0.021505
0.045000	-0.019593
0.045020	-0.019911
0.045040	-0.020867
0.045060	-0.021823
0.045080	-0.022461
0.045100	-0.021186
0.045120	-0.019274
0.045140	-0.021186
0.045160	-0.021505
0.045180	-0.020549
0.045200	-0.020549
0.045220	-0.018637
0.045240	-0.019593
0.045260	-0.019274
0.045280	-0.020549
0.045300	-0.019274
0.045320	-0.018955
0.045340	-0.019274
0.045360	-0.019593
0.045380	-0.019911
0.045400	-0.019274
0.045420	-0.018955
0.045440	-0.020230
0.045460	-0.018955
0.045480	-0.019274
0.045500	-0.017680
0.045520	-0.017362
0.045540	-0.018318
0.045560	-0.018637
0.045580	-0.017999
0.045600	-0.015768
0.045620	-0.017043
0.045640	-0.018955
0.045660	-0.017999
0.045680	-0.017999
0.045700	-0.018637
0.045720	-0.016406
0.045740	-0.018318
0.045760	-0.018318
0.045780	-0.017999
0.045800	-0.017043
0.045820	-0.016087
0.045840	-0.017043
0.045860	-0.015450
0.045880	-0.014812
0.045900	-0.015131
0.045920	-0.014812
0.045940	-0.015450
0.045960	-0.015131
0.045980	-0.014175
0.046000	-0.013856
0.046020	-0.014175
0.046040	-0.015768
0.046060	-0.014812
0.046080	-0.012582
0.046100	-0.012900
0.046120	-0.012263
0.046140	-0.012582
0.046160	-0.012263
0.046180	-0.011626
0.046200	-0.010032
0.046220	-0.009395
0.046240	-0.010988
0.046260	-0.010988
0.046280	-0.009714
0.046300	-0.009714
0.046320	-0.010032
0.046340	-0.010351
0.046360	-0.010032
0.046380	-0.009076
0.046400	-0.010351
0.046420	-0.010032
0.046440	-0.009714
0.046460	-0.008758
0.046480	-0.007802
0.046500	-0.008439
0.046520	-0.009076
0.046540	-0.009395
0.046560	-0.008758
0.046580	-0.008120
0.046600	-0.009076
0.046620	-0.009714
0.046640	-0.010670
0.046660	-0.010988
0.046680	-0.009714
0.046700	-0.010032
0.046720	-0.010351
0.046740	-0.011307
0.046760	-0.009714
0.046780	-0.009076
0.046800	-0.010670
0.046820	-0.010032
0.046840	-0.010032
0.046860	-0.010032
0.046880	-0.009076
0.046900	-0.011307
0.046920	-0.010032
0.046940	-0.011626
0.046960	-0.010988
0.046980	-0.010670
0.047000	-0.012263
0.047020	-0.012582
0.047040	-0.010670
0.047060	-0.010988
0.047080	-0.010988
0.047100	-0.010988
0.047120	-0.011626
0.047140	-0.010988
0.047160	-0.010032
0.047180	-0.008758
0.047200	-0.010670
0.047220	-0.011307
0.047240	-0.010351
0.047260	-0.010670
0.047280	-0.010988
0.047300	-0.011626
0.047320	-0.011307
0.047340	-0.012263
0.047360	-0.011307
0.047380	-0.010351
0.047400	-0.011626
0.047420	-0.011626
0.047440	-0.010032
0.047460	-0.010351
0.047480	-0.010988
0.047500	-0.011626
0.047520	-0.009714
0.047540	-0.009714
0.047560	-0.010670
0.047580	-0.010351
0.047600	-0.011626
0.047620	-0.012900
0.047640	-0.009395
0.047660	-0.010351
0.047680	-0.010670
0.047700	-0.011944
0.047720	-0.011626
0.047740	-0.010032
0.047760	-0.010351
0.047780	-0.010351
0.047800	-0.009714
0.047820	-0.010351
0.047840	-0.009076
0.047860	-0.009714
0.047880	-0.010032
0.047900	-0.011307
0.047920	-0.011626
0.047940	-0.009714
0.047960	-0.011307
0.047980	-0.011626
0.048000	-0.010351
0.048020	-0.010351
0.048040	-0.009714
0.048060	-0.010032
0.048080	-0.010670
0.048100	-0.010032
0.048120	-0.010351
0.048140	-0.008120
0.048160	-0.009395
0.048180	-0.011307
0.048200	-0.010988
0.048220	-0.009395
0.048240	-0.009395
0.048260	-0.010351
0.048280	-0.010670
0.048300	-0.010988
0.048320	-0.011307
0.048340	-0.009076
0.048360	-0.009714
0.048380	-0.010670
0.048400	-0.008758
0.048420	-0.009076
0.048440	-0.008758
0.048460	-0.010032
0.048480	-0.009714
0.048500	-0.009714
0.048520	-0.009714
0.048540	-0.009076
0.048560	-0.010032
0.048580	-0.012263
0.048600	-0.010032
0.048620	-0.009714
0.048640	-0.009714
0.048660	-0.010988
0.048680	-0.010988
0.048700	-0.009076
0.048720	-0.009714
0.048740	-0.009076
0.048760	-0.010351
0.048780	-0.010351
0.048800	-0.009395
0.048820	-0.009076
0.048840	-0.008758
0.048860	-0.010670
0.048880	-0.010988
0.048900	-0.009395
0.048920	-0.010670
0.048940	-0.010032
0.048960	-0.010351
0.048980	-0.010670
0.049000	-0.009714
0.049020	-0.009395
0.049040	-0.010351
0.049060	-0.009395
0.049080	-0.010351
0.049100	-0.007483
0.049120	-0.008120
0.049140	-0.009395
0.049160	-0.009714
0.049180	-0.010032
0.049200	-0.009714
0.049220	-0.010032
0.049240	-0.010670
0.049260	-0.010351
0.049280	-0.010988
0.049300	-0.008758
0.049320	-0.009714
0.049340	-0.009714
0.049360	-0.010032
0.049380	-0.010032
0.049400	-0.009714
0.049420	-0.009395
0.049440	-0.009395
0.049460	-0.008758
0.049480	-0.009395
0.049500	-0.008758
0.049520	-0.009076
0.049540	-0.011626
0.049560	-0.010670
0.049580	-0.010988
0.049600	-0.009395
0.049620	-0.010351
0.049640	-0.010032
0.049660	-0.009076
0.049680	-0.008758
0.049700	-0.008439
0.049720	-0.009076
0.049740	-0.009714
0.049760	-0.009714
0.049780	-0.009714
0.049800	-0.009076
0.049820	-0.008758
0.049840	-0.009714
0.049860	-0.009395
0.049880	-0.009076
0.049900	-0.009714
0.049920	-0.009714
0.049940	-0.010351
0.049960	-0.010351
0.049980	-0.008439
0.050000	-0.008439
0.050020	-0.008758
0.050040	-0.008439
0.050060	-0.007164
0.050080	-0.007802
0.050100	-0.009395
0.050120	-0.009714
0.050140	-0.010670
0.050160	-0.009076
0.050180	-0.008758
0.050200	-0.009076
0.050220	-0.009076
0.050240	-0.010351
0.050260	-0.008758
0.050280	-0.009076
0.050300	-0.008758
0.050320	-0.008758
0.050340	-0.009714
0.050360	-0.007802
0.050380	-0.008439
0.050400	-0.007483
0.050420	-0.008120
0.050440	-0.009714
0.050460	-0.008758
0.050480	-0.009076
0.050500	-0.010032
0.050520	-0.010032
0.050540	-0.009714
0.050560	-0.009076
0.050580	-0.008439
0.050600	-0.009714
0.050620	-0.009076
0.050640	-0.009714
0.050660	-0.008439
0.050680	-0.008120
0.050700	-0.009395
0.050720	-0.008439
0.050740	-0.008758
0.050760	-0.008439
0.050780	-0.008439
0.050800	-0.009714
0.050820	-0.010032
0.050840	-0.010351
0.050860	-0.009714
0.050880	-0.008439
0.050900	-0.009076
0.050920	-0.008758
0.050940	-0.008439
0.050960	-0.008758
0.050980	-0.008439
0.051000	-0.008758
0.051020	-0.008120
0.051040	-0.009076
0.051060	-0.008120
0.051080	-0.008439
0.051100	-0.009714
0.051120	-0.009076
0.051140	-0.009076
0.051160	-0.008758
0.051180	-0.009714
0.051200	-0.010351
0.051220	-0.009395
0.051240	-0.008758
0.051260	-0.008439
0.051280	-0.008439
0.051300	-0.009395
0.051320	-0.009076
0.051340	-0.009076
0.051360	-0.008120
0.051380	-0.007802
0.051400	-0.009395
0.051420	-0.009076
0.051440	-0.009714
0.051460	-0.010032
0.051480	-0.008439
0.051500	-0.009395
0.051520	-0.009076
0.051540	-0.009076
0.051560	-0.008439
0.051580	-0.008120
0.051600	-0.008758
0.051620	-0.007802
0.051640	-0.007483
0.051660	-0.008439
0.051680	-0.008120
0.051700	-0.008758
0.051720	-0.008758
0.051740	-0.007802
0.051760	-0.008439
0.051780	-0.008758
0.051800	-0.009714
0.051820	-0.008758
0.051840	-0.007483
0.051860	-0.009076
0.051880	-0.008439
0.051900	-0.007483
0.051920	-0.007802
0.051940	-0.007483
0.051960	-0.006846
0.051980	-0.006527
0.052000	-0.007483
0.052020	-0.007802
0.052040	-0.007164
0.052060	-0.008120
0.052080	-0.008758
0.052100	-0.007483
0.052120	-0.007164
0.052140	-0.007164
0.052160	-0.007483
0.052180	-0.007802
0.052200	-0.007483
0.052220	-0.006527
0.052240	-0.006527
0.052260	-0.007164
0.052280	-0.007483
0.052300	-0.006846
0.052320	-0.005889
0.052340	-0.005571
0.052360	-0.006846
0.052380	-0.006527
0.052400	-0.008120
0.052420	-0.008758
0.052440	-0.006527
0.052460	-0.007802
0.052480	-0.007483
0.052500	-0.007164
0.052520	-0.006846
0.052540	-0.006208
0.052560	-0.006846
0.052580	-0.006527
0.052600	-0.006208
0.052620	-0.006846
0.052640	-0.005889
0.052660	-0.006846
0.052680	-0.007164
0.052700	-0.006208
0.052720	-0.005889
0.052740	-0.006527
0.052760	-0.007802
0.052780	-0.007483
0.052800	-0.005889
0.052820	-0.007164
0.052840	-0.006846
0.052860	-0.005252
0.052880	-0.006527
0.052900	-0.005571
0.052920	-0.006208
0.052940	-0.004933
0.052960	-0.006527
0.052980	-0.007164
0.053000	-0.005571
0.053020	-0.006527
0.053040	-0.006846
0.053060	-0.007164
0.053080	-0.006846
0.053100	-0.006527
0.053120	-0.006527
0.053140	-0.006846
0.053160	-0.006208
0.053180	-0.006208
0.053200	-0.004296
0.053220	-0.006208
0.053240	-0.006527
0.053260	-0.006846
0.053280	-0.006208
0.053300	-0.005252
0.053320	-0.006527
0.053340	-0.006527
0.053360	-0.007164
0.053380	-0.007802
0.053400	-0.006846
0.053420	-0.007164
0.053440	-0.006527
0.053460	-0.006527
0.053480	-0.006846
0.053500	-0.006208
0.053520	-0.007164
0.053540	-0.006208
0.053560	-0.006208
0.053580	-0.007164
0.053600	-0.006527
0.053620	-0.007164
0.053640	-0.008120
0.053660	-0.007164
0.053680	-0.007164
0.053700	-0.006527
0.053720	-0.008439
0.053740	-0.007802
0.053760	-0.006527
0.053780	-0.007802
0.053800	-0.006846
0.053820	-0.006846
0.053840	-0.007483
0.053860	-0.006846
0.053880	-0.007164
0.053900	-0.005889
0.053920	-0.007164
0.053940	-0.008439
0.053960	-0.006846
0.053980	-0.007802
0.054000	-0.007802
0.054020	-0.007802
0.054040	-0.008439
0.054060	-0.007802
0.054080	-0.007483
0.054100	-0.007802
0.054120	-0.008120
0.054140	-0.007802
0.054160	-0.006846
0.054180	-0.006846
0.054200	-0.008120
0.054220	-0.008439
0.054240	-0.007483
0.054260	-0.007483
0.054280	-0.007802
0.054300	-0.007483
0.054320	-0.009076
0.054340	-0.010032
0.054360	-0.008439
0.054380	-0.008758
0.054400	-0.008439
0.054420	-0.008439
0.054440	-0.008439
0.054460	-0.007483
0.054480	-0.008120
0.054500	-0.007802
0.054520	-0.008120
0.054540	-0.008439
0.054560	-0.007483
0.054580	-0.008758
0.054600	-0.009395
0.054620	-0.008439
0.054640	-0.009076
0.054660	-0.008758
0.054680	-0.009076
0.054700	-0.009714
0.054720	-0.009076
0.054740	-0.008758
0.054760	-0.008120
0.054780	-0.007802
0.054800	-0.009076
0.054820	-0.008439
0.054840	-0.008758
0.054860	-0.006846
0.054880	-0.008439
0.054900	-0.009076
0.054920	-0.009395
0.054940	-0.009714
0.054960	-0.009076
0.054980	-0.008439
0.055000	-0.009395
0.055020	-0.008758
0.055040	-0.008439
0.055060	-0.008120
0.055080	-0.008439
0.055100	-0.008758
0.055120	-0.007164
0.055140	-0.007802
0.055160	-0.008758
0.055180	-0.008120
0.055200	-0.009395
0.055220	-0.008120
0.055240	-0.008758
0.055260	-0.009076
0.055280	-0.009395
0.055300	-0.010351
0.055320	-0.008758
0.055340	-0.008758
0.055360	-0.007483
0.055380	-0.008758
0.055400	-0.009076
0.055420	-0.008758
0.055440	-0.008758
0.055460	-0.008120
0.055480	-0.008758
0.055500	-0.009395
0.055520	-0.009076
0.055540	-0.009076
0.055560	-0.010351
0.055580	-0.009395
0.055600	-0.009714
0.055620	-0.009395
0.055640	-0.009714
0.055660	-0.010032
0.055680	-0.008758
0.055700	-0.009076
0.055720	-0.008120
0.055740	-0.008120
0.055760	-0.009076
0.055780	-0.007802
0.055800	-0.009076
0.055820	-0.008758
0.055840	-0.008758
0.055860	-0.009714
0.055880	-0.010032
0.055900	-0.010351
0.055920	-0.009076
0.055940	-0.007802
0.055960	-0.009076
0.055980	-0.008758
0.056000	-0.008758
0.056020	-0.008758
0.056040	-0.008439
0.056060	-0.008758
0.056080	-0.007483
0.056100	-0.008758
0.056120	-0.008120
0.056140	-0.008439
0.056160	-0.009076
0.056180	-0.008758
0.056200	-0.008758
0.056220	-0.008758
0.056240	-0.009395
0.056260	-0.010032
0.056280	-0.009395
0.056300	-0.009395
0.056320	-0.008120
0.056340	-0.007483
0.056360	-0.008758
0.056380	-0.008439
0.056400	-0.008439
0.056420	-0.007483
0.056440	-0.007802
0.056460	-0.009395
0.056480	-0.008439
0.056500	-0.008758
0.056520	-0.009714
0.056540	-0.008120
0.056560	-0.009714
0.056580	-0.008758
0.056600	-0.008758
0.056620	-0.009395
0.056640	-0.009076
0.056660	-0.010032
0.056680	-0.007802
0.056700	-0.008120
0.056720	-0.009076
0.056740	-0.008120
0.056760	-0.009395
0.056780	-0.009076
0.056800	-0.008439
0.056820	-0.009395
0.056840	-0.009714
0.056860	-0.010351
0.056880	-0.009714
0.056900	-0.007802
0.056920	-0.009076
0.056940	-0.008758
0.056960	-0.008758
0.056980	-0.009395
0.057000	-0.008758
0.057020	-0.008439
0.057040	-0.007483
0.057060	-0.009076
0.057080	-0.008758
0.057100	-0.008120
0.057120	-0.009076
0.057140	-0.008758
0.057160	-0.009076
0.057180	-0.008758
0.057200	-0.009076
0.057220	-0.010032
0.057240	-0.008758
0.057260	-0.009714
0.057280	-0.009076
0.057300	-0.008120
0.057320	-0.008758
0.057340	-0.009076
0.057360	-0.009076
0.057380	-0.008120
0.057400	-0.008439
0.057420	-0.010032
0.057440	-0.009076
0.057460	-0.009714
0.057480	-0.010351
0.057500	-0.009076
0.057520	-0.008758
0.057540	-0.009076
0.057560	-0.010032
0.057580	-0.009076
0.057600	-0.008439
0.057620	-0.009076
0.057640	-0.008439
0.057660	-0.008120
0.057680	-0.009076
0.057700	-0.007802
0.057720	-0.009076
0.057740	-0.009395
0.057760	-0.009076
0.057780	-0.009395
0.057800	-0.008439
0.057820	-0.010032
0.057840	-0.010670
0.057860	-0.007802
0.057880	-0.008758
0.057900	-0.009076
0.057920	-0.007802
0.057940	-0.009076
0.057960	-0.008120
0.057980	-0.007802
0.058000	-0.007164
0.058020	-0.008758
0.058040	-0.008758
0.058060	-0.008439
0.058080	-0.008758
0.058100	-0.008758
0.058120	-0.008758
0.058140	-0.009076
0.058160	-0.009395
0.058180	-0.009076
0.058200	-0.008439
0.058220	-0.009076
0.058240	-0.008120
0.058260	-0.007164
0.058280	-0.007483
0.058300	-0.008439
0.058320	-0.009395
0.058340	-0.007802
0.058360	-0.008439
0.058380	-0.009076
0.058400	-0.008439
0.058420	-0.008758
0.058440	-0.010351
0.058460	-0.008120
0.058480	-0.008758
0.058500	-0.008758
0.058520	-0.009714
0.058540	-0.009076
0.058560	-0.008120
0.058580	-0.008758
0.058600	-0.008120
0.058620	-0.008439
0.058640	-0.008120
0.058660	-0.008439
0.058680	-0.008758
0.058700	-0.009395
0.058720	-0.008758
0.058740	-0.009076
0.058760	-0.009395
0.058780	-0.010670
0.058800	-0.010032
0.058820	-0.008758
0.058840	-0.008439
0.058860	-0.007802
0.058880	-0.008758
0.058900	-0.008758
0.058920	-0.008758
0.058940	-0.008758
0.058960	-0.007164
0.058980	-0.008758
0.059000	-0.009395
0.059020	-0.008439
0.059040	-0.008439
0.059060	-0.008758
0.059080	-0.008758
0.059100	-0.009714
0.059120	-0.009714
0.059140	-0.009395
0.059160	-0.008439
0.059180	-0.008758
0.059200	-0.008758
0.059220	-0.007164
0.059240	-0.007802
0.059260	-0.008758
0.059280	-0.008758
0.059300	-0.009076
0.059320	-0.008120
0.059340	-0.009076
0.059360	-0.008758
0.059380	-0.009395
0.059400	-0.010351
0.059420	-0.008758
0.059440	-0.008758
0.059460	-0.008120
0.059480	-0.008758
0.059500	-0.009076
0.059520	-0.007802
0.059540	-0.008120
0.059560	-0.009076
0.059580	-0.008120
0.059600	-0.009076
0.059620	-0.008120
0.059640	-0.008758
0.059660	-0.009714
0.059680	-0.008758
0.059700	-0.009714
0.059720	-0.008439
0.059740	-0.009076
0.059760	-0.009714
0.059780	-0.008439
0.059800	-0.008439
0.059820	-0.007483
0.059840	-0.007802
0.059860	-0.009714
0.059880	-0.007802
0.059900	-0.008439
0.059920	-0.006846
0.059940	-0.008120
0.059960	-0.009395
0.059980	-0.008439
0.060000	-0.009076
0.060020	-0.008439
0.060040	-0.008758
0.060060	-0.009076
0.060080	-0.007802
0.060100	-0.008439
0.060120	-0.008120
0.060140	-0.008439
0.060160	-0.008120
0.060180	-0.007483
0.060200	-0.007802
0.060220	-0.008758
0.060240	-0.008439
0.060260	-0.009076
0.060280	-0.008439
0.060300	-0.008439
0.060320	-0.008758
0.060340	-0.008439
0.060360	-0.009076
0.060380	-0.008120
0.060400	-0.008120
0.060420	-0.008120
0.060440	-0.009076
0.060460	-0.008758
0.060480	-0.008439
0.060500	-0.007802
0.060520	-0.007802
0.060540	-0.007802
0.060560	-0.009076
0.060580	-0.008439
0.060600	-0.009076
0.060620	-0.010032
0.060640	-0.008439
0.060660	-0.009714
0.060680	-0.009395
0.060700	-0.009395
0.060720	-0.009076
0.060740	-0.008439
0.060760	-0.009395
0.060780	-0.007802
0.060800	-0.008120
0.060820	-0.009076
0.060840	-0.008439
0.060860	-0.009076
0.060880	-0.007802
0.060900	-0.008758
0.060920	-0.009076
0.060940	-0.008439
0.060960	-0.009395
0.060980	-0.008758
0.061000	-0.008120
0.061020	-0.009714
0.061040	-0.009076
0.061060	-0.008439
0.061080	-0.008758
0.061100	-0.008758
0.061120	-0.008439
0.061140	-0.007164
0.061160	-0.008120
0.061180	-0.008758
0.061200	-0.008120
0.061220	-0.009714
0.061240	-0.008120
0.061260	-0.008758
0.061280	-0.008439
0.061300	-0.008758
0.061320	-0.009714
0.061340	-0.008439
0.061360	-0.008439
0.061380	-0.008439
0.061400	-0.008758
0.061420	-0.008758
0.061440	-0.009076
0.061460	-0.008439
0.061480	-0.007802
0.061500	-0.007483
0.061520	-0.008120
0.061540	-0.008439
0.061560	-0.008758
0.061580	-0.009714
0.061600	-0.008439
0.061620	-0.009395
0.061640	-0.009395
0.061660	-0.009714
0.061680	-0.008758
0.061700	-0.007483
0.061720	-0.009076
0.061740	-0.008120
0.061760	-0.008120
0.061780	-0.008439
0.061800	-0.008120
0.061820	-0.009076
0.061840	-0.008120
0.061860	-0.008120
0.061880	-0.008439
0.061900	-0.008120
0.061920	-0.010032
0.061940	-0.009076
0.061960	-0.008439
0.061980	-0.009714
0.062000	-0.008439
0.062020	-0.008120
0.062040	-0.008758
0.062060	-0.008120
0.062080	-0.008120
0.062100	-0.007164
0.062120	-0.008758
0.062140	-0.008758
0.062160	-0.008120
0.062180	-0.009076
0.062200	-0.008758
0.062220	-0.009395
0.062240	-0.009395
0.062260	-0.009714
0.062280	-0.010032
0.062300	-0.008439
0.062320	-0.009395
0.062340	-0.008758
0.062360	-0.008439
0.062380	-0.008758
0.062400	-0.008758
0.062420	-0.009076
0.062440	-0.007802
0.062460	-0.008120
0.062480	-0.010032
0.062500	-0.008758
0.062520	-0.009714
0.062540	-0.010670
0.062560	-0.009076
0.062580	-0.009714
0.062600	-0.009714
0.062620	-0.011307
0.062640	-0.009395
0.062660	-0.008120
0.062680	-0.010032
0.062700	-0.009076
0.062720	-0.008439
0.062740	-0.009714
0.062760	-0.009395
0.062780	-0.009395
0.062800	-0.009395
0.062820	-0.009395
0.062840	-0.010032
0.062860	-0.009714
0.062880	-0.010988
0.062900	-0.010670
0.062920	-0.009714
0.062940	-0.009395
0.062960	-0.009395
0.062980	-0.010032
0.063000	-0.009395
0.063020	-0.009395
0.063040	-0.009076
0.063060	-0.007802
0.063080	-0.009076
0.063100	-0.010032
0.063120	-0.008439
0.063140	-0.010032
0.063160	-0.009395
0.063180	-0.010351
0.063200	-0.009714
0.063220	-0.010032
0.063240	-0.010670
0.063260	-0.009714
0.063280	-0.010351
0.063300	-0.010670
0.063320	-0.009395
0.063340	-0.009076
0.063360	-0.008758
0.063380	-0.010351
0.063400	-0.009076
0.063420	-0.008439
0.063440	-0.010032
0.063460	-0.009714
0.063480	-0.010351
0.063500	-0.011307
0.063520	-0.010032
0.063540	-0.010032
0.063560	-0.010032
0.063580	-0.010988
0.063600	-0.010670
0.063620	-0.008758
0.063640	-0.009395
0.063660	-0.009395
0.063680	-0.009076
0.063700	-0.010032
0.063720	-0.009395
0.063740	-0.010351
0.063760	-0.009714
0.063780	-0.009076
0.063800	-0.010032
0.063820	-0.009395
0.063840	-0.010988
0.063860	-0.011307
0.063880	-0.009714
0.063900	-0.009714
0.063920	-0.009714
0.063940	-0.009395
0.063960	-0.009714
0.063980	-0.009076
0.064000	-0.009395
0.064020	-0.007802
0.064040	-0.008758
0.064060	-0.010032
0.064080	-0.008758
0.064100	-0.009395
0.064120	-0.009076
0.064140	-0.009714
0.064160	-0.010032
0.064180	-0.010032
0.064200	-0.010670
0.064220	-0.009714
0.064240	-0.009395
0.064260	-0.009076
0.064280	-0.008758
0.064300	-0.008758
0.064320	-0.009076
0.064340	-0.009395
0.064360	-0.008758
0.064380	-0.008120
0.064400	-0.009395
0.064420	-0.009076
0.064440	-0.010351
0.064460	-0.011307
0.064480	-0.009395
0.064500	-0.009395
0.064520	-0.009076
0.064540	-0.010351
0.064560	-0.010351
0.064580	-0.009076
0.064600	-0.009714
0.064620	-0.008439
0.064640	-0.009076
0.064660	-0.009076
0.064680	-0.009395
0.064700	-0.009714
0.064720	-0.009395
0.064740	-0.009714
0.064760	-0.009714
0.064780	-0.009714
0.064800	-0.010351
0.064820	-0.010670
0.064840	-0.009714
0.064860	-0.009395
0.064880	-0.009395
0.064900	-0.009395
0.064920	-0.009076
0.064940	-0.009076
0.064960	-0.009395
0.064980	-0.007802
0.065000	-0.009076
0.065020	-0.009395
0.065040	-0.009714
0.065060	-0.009714
0.065080	-0.008758
0.065100	-0.008758
0.065120	-0.009714
0.065140	-0.009714
0.065160	-0.010351
0.065180	-0.009076
0.065200	-0.009395
0.065220	-0.009714
0.065240	-0.008758
0.065260	-0.009076
0.065280	-0.008120
0.065300	-0.009076
0.065320	-0.008758
0.065340	-0.009076
0.065360	-0.009395
0.065380	-0.009714
0.065400	-0.010032
0.065420	-0.011307
0.065440	-0.008758
0.065460	-0.009714
0.065480	-0.009076
0.065500	-0.010032
0.065520	-0.010032
0.065540	-0.008439
0.065560	-0.008758
0.065580	-0.008758
0.065600	-0.009076
0.065620	-0.009714
0.065640	-0.009395
0.065660	-0.008758
0.065680	-0.008120
0.065700	-0.008120
0.065720	-0.009714
0.065740	-0.009714
0.065760	-0.009395
0.065780	-0.010032
0.065800	-0.009395
0.065820	-0.009076
0.065840	-0.008120
0.065860	-0.007802
0.065880	-0.008439
0.065900	-0.008439
0.065920	-0.007802
0.065940	-0.007483
0.065960	-0.008120
0.065980	-0.008439
0.066000	-0.008439
0.066020	-0.009076
0.066040	-0.008758
0.066060	-0.007802
0.066080	-0.009076
0.066100	-0.008758
0.066120	-0.009076
0.066140	-0.009076
0.066160	-0.009076
0.066180	-0.008439
0.066200	-0.007164
0.066220	-0.008120
0.066240	-0.007483
0.066260	-0.006846
0.066280	-0.007164
0.066300	-0.008439
0.066320	-0.009076
0.066340	-0.008120
0.066360	-0.009076
0.066380	-0.010032
0.066400	-0.008120
0.066420	-0.008758
0.066440	-0.008120
0.066460	-0.008439
0.066480	-0.008758
0.066500	-0.008120
0.066520	-0.008758
0.066540	-0.007164
0.066560	-0.007802
0.066580	-0.009076
0.066600	-0.008120
0.066620	-0.008439
0.066640	-0.009076
0.066660	-0.008120
0.066680	-0.009076
0.066700	-0.009076
0.066720	-0.010032
0.066740	-0.009076
0.066760	-0.008439
0.066780	-0.009395
0.066800	-0.008758
0.066820	-0.007802
0.066840	-0.008758
0.066860	-0.008439
0.066880	-0.008439
0.066900	-0.007164
0.066920	-0.008758
0.066940	-0.009076
0.066960	-0.008439
0.066980	-0.009395
0.067000	-0.008439
0.067020	-0.007802
0.067040	-0.009076
0.067060	-0.009395
0.067080	-0.009395
0.067100	-0.009076
0.067120	-0.009076
0.067140	-0.007802
0.067160	-0.007802
0.067180	-0.008439
0.067200	-0.008439
0.067220	-0.008120
0.067240	-0.008120
0.067260	-0.008439
0.067280	-0.008758
0.067300	-0.009076
0.067320	-0.008758
0.067340	-0.010670
0.067360	-0.008758
0.067380	-0.009076
0.067400	-0.008439
0.067420	-0.008439
0.067440	-0.009395
0.067460	-0.008439
0.067480	-0.009076
0.067500	-0.007802
0.067520	-0.007483
0.067540	-0.009395
0.067560	-0.008758
0.067580	-0.008758
0.067600	-0.009076
0.067620	-0.008758
0.067640	-0.009395
0.067660	-0.009076
0.067680	-0.010351
0.067700	-0.009395
0.067720	-0.008439
0.067740	-0.009714
0.067760	-0.008439
0.067780	-0.007483
0.067800	-0.008439
0.067820	-0.007802
0.067840	-0.007802
0.067860	-0.006846
0.067880	-0.008120
0.067900	-0.008439
0.067920	-0.008120
0.067940	-0.009395
0.067960	-0.008758
0.067980	-0.008120
0.068000	-0.008758
0.068020	-0.008758
0.068040	-0.009076
0.068060	-0.008758
0.068080	-0.007802
0.068100	-0.007802
0.068120	-0.007802
0.068140	-0.008439
0.068160	-0.007802
0.068180	-0.008120
0.068200	-0.006846
0.068220	-0.008120
0.068240	-0.009076
0.068260	-0.008758
0.068280	-0.009395
0.068300	-0.010351
0.068320	-0.008120
0.068340	-0.009076
0.068360	-0.008439
0.068380	-0.008439
0.068400	-0.008439
0.068420	-0.007802
0.068440	-0.008758
0.068460	-0.007802
0.068480	-0.007483
0.068500	-0.009076
0.068520	-0.008120
0.068540	-0.008439
0.068560	-0.008439
0.068580	-0.008439
0.068600	-0.009076
0.068620	-0.009076
0.068640	-0.009714
0.068660	-0.009714
0.068680	-0.007802
0.068700	-0.008758
0.068720	-0.008120
0.068740	-0.007802
0.068760	-0.008439
0.068780	-0.007802
0.068800	-0.009076
0.068820	-0.007483
0.068840	-0.008120
0.068860	-0.009395
0.068880	-0.007802
0.068900	-0.009395
0.068920	-0.009076
0.068940	-0.008758
0.068960	-0.008758
0.068980	-0.008758
0.069000	-0.009395
0.069020	-0.008758
0.069040	-0.008439
0.069060	-0.008439
0.069080	-0.007164
0.069100	-0.008120
0.069120	-0.008758
0.069140	-0.008439
0.069160	-0.008439
0.069180	-0.007483
0.069200	-0.009076
0.069220	-0.008758
0.069240	-0.009395
0.069260	-0.010351
0.069280	-0.007802
0.069300	-0.008439
0.069320	-0.008439
0.069340	-0.008439
0.069360	-0.007802
0.069380	-0.007802
0.069400	-0.009076
0.069420	-0.008120
0.069440	-0.008120
0.069460	-0.009076
0.069480	-0.008758
0.069500	-0.009395
0.069520	-0.009076
0.069540	-0.009076
0.069560	-0.009076
0.069580	-0.008758
0.069600	-0.010351
0.069620	-0.010032
0.069640	-0.008120
0.069660	-0.008758
0.069680	-0.007802
0.069700	-0.008120
0.069720	-0.008439
0.069740	-0.008120
0.069760	-0.008439
0.069780	-0.006846
0.069800	-0.009076
0.069820	-0.009076
0.069840	-0.008439
0.069860	-0.009076
0.069880	-0.009395
0.069900	-0.008758
0.069920	-0.009395
0.069940	-0.008439
0.069960	-0.009076
0.069980	-0.008439
0.070000	-0.008758
0.070020	-0.008439
0.070040	-0.007164
0.070060	-0.007802
0.070080	-0.008758
0.070100	-0.008120
0.070120	-0.009076
0.070140	-0.007483
0.070160	-0.008758
0.070180	-0.009076
0.070200	-0.009395
0.070220	-0.010032
0.070240	-0.008120
0.070260	-0.009076
0.070280	-0.008439
0.070300	-0.008439
0.070320	-0.008439
0.070340	-0.007802
0.070360	-0.008439
0.070380	-0.008439
0.070400	-0.007483
0.070420	-0.008439
0.070440	-0.008439
0.070460	-0.008758
0.070480	-0.009714
0.070500	-0.008439
0.070520	-0.009395
0.070540	-0.009076
0.070560	-0.009395
0.070580	-0.010032
0.070600	-0.008439
0.070620	-0.008439
0.070640	-0.007802
0.070660	-0.007802
0.070680	-0.009076
0.070700	-0.008120
0.070720	-0.008439
0.070740	-0.007802
0.070760	-0.008439
0.070780	-0.009395
0.070800	-0.009076
0.070820	-0.009395
0.070840	-0.009076
0.070860	-0.009076
0.070880	-0.009395
0.070900	-0.009076
0.070920	-0.008439
0.070940	-0.008439
0.070960	-0.008120
0.070980	-0.008439
0.071000	-0.007164
0.071020	-0.008439
0.071040	-0.008758
0.071060	-0.009076
0.071080	-0.009076
0.071100	-0.008439
0.071120	-0.008439
0.071140	-0.009076
0.071160	-0.009714
0.071180	-0.010032
0.071200	-0.009395
0.071220	-0.009395
0.071240	-0.009076
0.071260	-0.008758
0.071280	-0.009076
0.071300	-0.009076
0.071320	-0.008439
0.071340	-0.008120
0.071360	-0.008758
0.071380	-0.009395
0.071400	-0.008758
0.071420	-0.009076
0.071440	-0.010670
0.071460	-0.009714
0.071480	-0.009395
0.071500	-0.009395
0.071520	-0.010351
0.071540	-0.010351
0.071560	-0.009076
0.071580	-0.009395
0.071600	-0.008439
0.071620	-0.008758
0.071640	-0.009714
0.071660	-0.009076
0.071680	-0.009076
0.071700	-0.009076
0.071720	-0.009395
0.071740	-0.009714
0.071760	-0.009395
0.071780	-0.009714
0.071800	-0.009714
0.071820	-0.008758
0.071840	-0.010032
0.071860	-0.009395
0.071880	-0.009395
0.071900	-0.009714
0.071920	-0.008439
0.071940	-0.008758
0.071960	-0.007483
0.071980	-0.008439
0.072000	-0.010032
0.072020	-0.009076
0.072040	-0.009714
0.072060	-0.009076
0.072080	-0.009395
0.072100	-0.009076
0.072120	-0.010351
0.072140	-0.010670
0.072160	-0.009076
0.072180	-0.009714
0.072200	-0.009076
0.072220	-0.008758
0.072240	-0.008758
0.072260	-0.009076
0.072280	-0.008758
0.072300	-0.008120
0.072320	-0.008439
0.072340	-0.010032
0.072360	-0.008120
0.072380	-0.009076
0.072400	-0.010351
0.072420	-0.009076
0.072440	-0.009076
0.072460	-0.009714
0.072480	-0.010032
0.072500	-0.010351
0.072520	-0.008439
0.072540	-0.009076
0.072560	-0.008120
0.072580	-0.008439
0.072600	-0.010032
0.072620	-0.008758
0.072640	-0.009076
0.072660	-0.008758
0.072680	-0.009076
0.072700	-0.009714
0.072720	-0.009395
0.072740	-0.010670
0.072760	-0.009714
0.072780	-0.008758
0.072800	-0.009395
0.072820	-0.009395
0.072840	-0.009076
0.072860	-0.010351
0.072880	-0.009076
0.072900	-0.008758
0.072920	-0.007802
0.072940	-0.009076
0.072960	-0.009395
0.072980	-0.008758
0.073000	-0.010032
0.073020	-0.009714
0.073040	-0.009714
0.073060	-0.009714
0.073080	-0.009714
0.073100	-0.010670
0.073120	-0.009714
0.073140	-0.009395
0.073160	-0.010351
0.073180	-0.008758
0.073200	-0.009714
0.073220	-0.009714
0.073240	-0.009395
0.073260	-0.008758
0.073280	-0.008758
0.073300	-0.010032
0.073320	-0.009714
0.073340	-0.010032
0.073360	-0.010988
0.073380	-0.009714
0.073400	-0.010351
0.073420	-0.010351
0.073440	-0.010988
0.073460	-0.010351
0.073480	-0.009395
0.073500	-0.010351
0.073520	-0.010032
0.073540	-0.009076
0.073560	-0.010670
0.073580	-0.009714
0.073600	-0.010032
0.073620	-0.009714
0.073640	-0.010032
0.073660	-0.010351
0.073680	-0.010032
0.073700	-0.011307
0.073720	-0.010670
0.073740	-0.009076
0.073760	-0.010670
0.073780	-0.010670
0.073800	-0.009076
0.073820	-0.010351
0.073840	-0.009714
0.073860	-0.009714
0.073880	-0.007802
0.073900	-0.010032
0.073920	-0.010351
0.073940	-0.010351
0.073960	-0.010351
0.073980	-0.011307
0.074000	-0.010351
0.074020	-0.010032
0.074040	-0.010032
0.074060	-0.010670
0.074080	-0.009076
0.074100	-0.010032
0.074120	-0.010351
0.074140	-0.009076
0.074160	-0.009076
0.074180	-0.010032
0.074200	-0.009076
0.074220	-0.009395
0.074240	-0.008439
0.074260	-0.010351
0.074280	-0.010032
0.074300	-0.010032
0.074320	-0.011944
0.074340	-0.009395
0.074360	-0.010032
0.074380	-0.010351
0.074400	-0.010988
0.074420	-0.010032
0.074440	-0.009395
0.074460	-0.010351
0.074480	-0.009395
0.074500	-0.009076
0.074520	-0.009714
0.074540	-0.009395
0.074560	-0.010032
0.074580	-0.009714
0.074600	-0.010351
0.074620	-0.010351
0.074640	-0.009714
0.074660	-0.011307
0.074680	-0.010351
0.074700	-0.009714
0.074720	-0.009076
0.074740	-0.009714
0.074760	-0.009395
0.074780	-0.009714
0.074800	-0.009076
0.074820	-0.009076
0.074840	-0.007483
0.074860	-0.009714
0.074880	-0.009714
0.074900	-0.009714
0.074920	-0.010351
0.074940	-0.009714
0.074960	-0.009395
0.074980	-0.010032

