LabVIEW Measurement	
Writer_Version	2
Reader_Version	2
Separator	Tab
Decimal_Separator	.
Multi_Headings	Yes
X_Columns	One
Time_Pref	Relative
Operator	BME 302
Description	Time Domain Data
Date	2018/03/22
Time	14:33:56.8604478836059570312
***End_of_Header***	
	
Channels	1	
Samples	5000	
Date	1903/12/31	
Time	19:00:00	
X_Dimension	Time	
X0	0.0000000000000000E+0	
Delta_X	2.000000E-5	
***End_of_Header***		
X_Value	Untitled	Comment
0.000000	-0.005571	Tare Values:0.000000, 0.000000, 0.000000, 0.000000\0D\0A
2.000000E-5	-0.005571
4.000000E-5	-0.004933
6.000000E-5	-0.005889
8.000000E-5	-0.004933
0.000100	-0.005889
0.000120	-0.006527
0.000140	-0.004615
0.000160	-0.005889
0.000180	-0.004615
0.000200	-0.004615
0.000220	-0.005889
0.000240	-0.004933
0.000260	-0.004933
0.000280	-0.003977
0.000300	-0.005252
0.000320	-0.005889
0.000340	-0.005252
0.000360	-0.005571
0.000380	-0.005889
0.000400	-0.005252
0.000420	-0.004933
0.000440	-0.004933
0.000460	-0.005889
0.000480	-0.005252
0.000500	-0.004296
0.000520	-0.004933
0.000540	-0.003340
0.000560	-0.004615
0.000580	-0.005252
0.000600	-0.005252
0.000620	-0.004296
0.000640	-0.004615
0.000660	-0.005889
0.000680	-0.005571
0.000700	-0.005889
0.000720	-0.006527
0.000740	-0.005252
0.000760	-0.005889
0.000780	-0.004615
0.000800	-0.004933
0.000820	-0.005252
0.000840	-0.004615
0.000860	-0.004933
0.000880	-0.004296
0.000900	-0.003977
0.000920	-0.005571
0.000940	-0.004615
0.000960	-0.004933
0.000980	-0.006208
0.001000	-0.005571
0.001020	-0.005889
0.001040	-0.005571
0.001060	-0.007164
0.001080	-0.006527
0.001100	-0.004296
0.001120	-0.005252
0.001140	-0.004933
0.001160	-0.004615
0.001180	-0.004933
0.001200	-0.004615
0.001220	-0.005252
0.001240	-0.003977
0.001260	-0.004933
0.001280	-0.005571
0.001300	-0.005252
0.001320	-0.006208
0.001340	-0.006527
0.001360	-0.004615
0.001380	-0.005571
0.001400	-0.004615
0.001420	-0.004296
0.001440	-0.005252
0.001460	-0.004933
0.001480	-0.005252
0.001500	-0.003021
0.001520	-0.004296
0.001540	-0.005252
0.001560	-0.004615
0.001580	-0.005252
0.001600	-0.004615
0.001620	-0.004615
0.001640	-0.004933
0.001660	-0.005889
0.001680	-0.006527
0.001700	-0.005252
0.001720	-0.005252
0.001740	-0.005571
0.001760	-0.004615
0.001780	-0.004615
0.001800	-0.004615
0.001820	-0.005252
0.001840	-0.004615
0.001860	-0.005252
0.001880	-0.005252
0.001900	-0.004933
0.001920	-0.005571
0.001940	-0.006527
0.001960	-0.004615
0.001980	-0.005571
0.002000	-0.005571
0.002020	-0.006527
0.002040	-0.005571
0.002060	-0.004933
0.002080	-0.005252
0.002100	-0.004615
0.002120	-0.004933
0.002140	-0.005889
0.002160	-0.004296
0.002180	-0.004615
0.002200	-0.003977
0.002220	-0.005252
0.002240	-0.005889
0.002260	-0.005571
0.002280	-0.006527
0.002300	-0.005889
0.002320	-0.005252
0.002340	-0.005571
0.002360	-0.005571
0.002380	-0.004615
0.002400	-0.005252
0.002420	-0.005571
0.002440	-0.004615
0.002460	-0.003659
0.002480	-0.004933
0.002500	-0.005252
0.002520	-0.005571
0.002540	-0.004933
0.002560	-0.004615
0.002580	-0.005252
0.002600	-0.004933
0.002620	-0.006208
0.002640	-0.006527
0.002660	-0.005252
0.002680	-0.005571
0.002700	-0.004933
0.002720	-0.004296
0.002740	-0.005571
0.002760	-0.005252
0.002780	-0.004615
0.002800	-0.003977
0.002820	-0.004296
0.002840	-0.005252
0.002860	-0.005252
0.002880	-0.005571
0.002900	-0.006846
0.002920	-0.005252
0.002940	-0.006527
0.002960	-0.006208
0.002980	-0.005571
0.003000	-0.005889
0.003020	-0.004296
0.003040	-0.006208
0.003060	-0.003977
0.003080	-0.004615
0.003100	-0.005252
0.003120	-0.004615
0.003140	-0.004615
0.003160	-0.003977
0.003180	-0.004933
0.003200	-0.005571
0.003220	-0.005571
0.003240	-0.006527
0.003260	-0.005252
0.003280	-0.005252
0.003300	-0.005571
0.003320	-0.005571
0.003340	-0.005252
0.003360	-0.005571
0.003380	-0.004615
0.003400	-0.004615
0.003420	-0.003340
0.003440	-0.004615
0.003460	-0.004933
0.003480	-0.004933
0.003500	-0.005252
0.003520	-0.005252
0.003540	-0.004933
0.003560	-0.005889
0.003580	-0.006208
0.003600	-0.006846
0.003620	-0.004933
0.003640	-0.005252
0.003660	-0.004933
0.003680	-0.005252
0.003700	-0.004296
0.003720	-0.004615
0.003740	-0.005252
0.003760	-0.004615
0.003780	-0.003977
0.003800	-0.005571
0.003820	-0.004933
0.003840	-0.005889
0.003860	-0.006846
0.003880	-0.005252
0.003900	-0.006846
0.003920	-0.005252
0.003940	-0.006208
0.003960	-0.005889
0.003980	-0.004615
0.004000	-0.005889
0.004020	-0.004615
0.004040	-0.004933
0.004060	-0.005889
0.004080	-0.005252
0.004100	-0.005889
0.004120	-0.003977
0.004140	-0.005252
0.004160	-0.005889
0.004180	-0.004933
0.004200	-0.005571
0.004220	-0.006527
0.004240	-0.004933
0.004260	-0.006208
0.004280	-0.005889
0.004300	-0.005571
0.004320	-0.005252
0.004340	-0.004933
0.004360	-0.004933
0.004380	-0.003340
0.004400	-0.004296
0.004420	-0.005252
0.004440	-0.005252
0.004460	-0.005571
0.004480	-0.004933
0.004500	-0.005571
0.004520	-0.005252
0.004540	-0.005252
0.004560	-0.006208
0.004580	-0.005252
0.004600	-0.005571
0.004620	-0.005252
0.004640	-0.004615
0.004660	-0.004933
0.004680	-0.004296
0.004700	-0.005571
0.004720	-0.004296
0.004740	-0.004933
0.004760	-0.005889
0.004780	-0.005252
0.004800	-0.005252
0.004820	-0.005889
0.004840	-0.004933
0.004860	-0.005889
0.004880	-0.004933
0.004900	-0.006527
0.004920	-0.005889
0.004940	-0.004615
0.004960	-0.005252
0.004980	-0.004615
0.005000	-0.003977
0.005020	-0.005252
0.005040	-0.004933
0.005060	-0.004615
0.005080	-0.003977
0.005100	-0.005252
0.005120	-0.005252
0.005140	-0.005252
0.005160	-0.006208
0.005180	-0.005889
0.005200	-0.004615
0.005220	-0.005571
0.005240	-0.005252
0.005260	-0.004933
0.005280	-0.004615
0.005300	-0.005571
0.005320	-0.004933
0.005340	-0.003659
0.005360	-0.005252
0.005380	-0.005252
0.005400	-0.004615
0.005420	-0.005571
0.005440	-0.005571
0.005460	-0.005252
0.005480	-0.005571
0.005500	-0.005571
0.005520	-0.006527
0.005540	-0.004615
0.005560	-0.004933
0.005580	-0.005252
0.005600	-0.004615
0.005620	-0.004296
0.005640	-0.005252
0.005660	-0.004933
0.005680	-0.004296
0.005700	-0.004615
0.005720	-0.005252
0.005740	-0.004933
0.005760	-0.005571
0.005780	-0.007164
0.005800	-0.004615
0.005820	-0.005889
0.005840	-0.005252
0.005860	-0.006527
0.005880	-0.006208
0.005900	-0.004933
0.005920	-0.005571
0.005940	-0.004296
0.005960	-0.005252
0.005980	-0.005889
0.006000	-0.004615
0.006020	-0.004933
0.006040	-0.004296
0.006060	-0.004296
0.006080	-0.005571
0.006100	-0.005571
0.006120	-0.006208
0.006140	-0.006208
0.006160	-0.005252
0.006180	-0.006208
0.006200	-0.004933
0.006220	-0.004615
0.006240	-0.005252
0.006260	-0.004615
0.006280	-0.004615
0.006300	-0.003340
0.006320	-0.004933
0.006340	-0.005571
0.006360	-0.004933
0.006380	-0.005889
0.006400	-0.004933
0.006420	-0.004933
0.006440	-0.005571
0.006460	-0.005571
0.006480	-0.006208
0.006500	-0.005252
0.006520	-0.005889
0.006540	-0.004615
0.006560	-0.003977
0.006580	-0.004615
0.006600	-0.004296
0.006620	-0.005252
0.006640	-0.003977
0.006660	-0.004296
0.006680	-0.005571
0.006700	-0.005252
0.006720	-0.006208
0.006740	-0.006527
0.006760	-0.004615
0.006780	-0.006208
0.006800	-0.005571
0.006820	-0.006208
0.006840	-0.005252
0.006860	-0.004933
0.006880	-0.004615
0.006900	-0.004296
0.006920	-0.004933
0.006940	-0.005889
0.006960	-0.004615
0.006980	-0.005571
0.007000	-0.004296
0.007020	-0.005252
0.007040	-0.005571
0.007060	-0.004933
0.007080	-0.006527
0.007100	-0.006208
0.007120	-0.004296
0.007140	-0.005889
0.007160	-0.004296
0.007180	-0.004933
0.007200	-0.005252
0.007220	-0.003977
0.007240	-0.005252
0.007260	-0.003021
0.007280	-0.004296
0.007300	-0.006208
0.007320	-0.005571
0.007340	-0.005571
0.007360	-0.005252
0.007380	-0.005571
0.007400	-0.005252
0.007420	-0.005571
0.007440	-0.005571
0.007460	-0.006208
0.007480	-0.005252
0.007500	-0.005252
0.007520	-0.002703
0.007540	-0.004615
0.007560	-0.004615
0.007580	-0.004933
0.007600	-0.004615
0.007620	-0.004615
0.007640	-0.005252
0.007660	-0.005252
0.007680	-0.005252
0.007700	-0.006527
0.007720	-0.005252
0.007740	-0.005571
0.007760	-0.005252
0.007780	-0.005252
0.007800	-0.005252
0.007820	-0.005252
0.007840	-0.005252
0.007860	-0.004296
0.007880	-0.004933
0.007900	-0.004615
0.007920	-0.005252
0.007940	-0.005252
0.007960	-0.005889
0.007980	-0.004933
0.008000	-0.005889
0.008020	-0.005571
0.008040	-0.006527
0.008060	-0.006208
0.008080	-0.004296
0.008100	-0.005889
0.008120	-0.005252
0.008140	-0.005252
0.008160	-0.005252
0.008180	-0.004933
0.008200	-0.005571
0.008220	-0.004296
0.008240	-0.004933
0.008260	-0.005571
0.008280	-0.005571
0.008300	-0.005571
0.008320	-0.005571
0.008340	-0.004615
0.008360	-0.005252
0.008380	-0.004933
0.008400	-0.005571
0.008420	-0.005571
0.008440	-0.005252
0.008460	-0.004933
0.008480	-0.003659
0.008500	-0.004296
0.008520	-0.005571
0.008540	-0.005252
0.008560	-0.005889
0.008580	-0.004296
0.008600	-0.004933
0.008620	-0.004933
0.008640	-0.005571
0.008660	-0.006846
0.008680	-0.005252
0.008700	-0.005252
0.008720	-0.005571
0.008740	-0.005252
0.008760	-0.004615
0.008780	-0.004933
0.008800	-0.004615
0.008820	-0.004296
0.008840	-0.004615
0.008860	-0.004933
0.008880	-0.004933
0.008900	-0.005252
0.008920	-0.006846
0.008940	-0.005889
0.008960	-0.005889
0.008980	-0.004933
0.009000	-0.006208
0.009020	-0.005571
0.009040	-0.004933
0.009060	-0.005252
0.009080	-0.004296
0.009100	-0.003977
0.009120	-0.005252
0.009140	-0.004933
0.009160	-0.004615
0.009180	-0.004296
0.009200	-0.005252
0.009220	-0.005571
0.009240	-0.004933
0.009260	-0.006527
0.009280	-0.005571
0.009300	-0.004933
0.009320	-0.005889
0.009340	-0.005252
0.009360	-0.004615
0.009380	-0.004933
0.009400	-0.004615
0.009420	-0.004615
0.009440	-0.003340
0.009460	-0.004615
0.009480	-0.005571
0.009500	-0.004615
0.009520	-0.005252
0.009540	-0.004615
0.009560	-0.005571
0.009580	-0.005571
0.009600	-0.005889
0.009620	-0.006527
0.009640	-0.004615
0.009660	-0.005571
0.009680	-0.004933
0.009700	-0.004296
0.009720	-0.004615
0.009740	-0.004615
0.009760	-0.004615
0.009780	-0.004296
0.009800	-0.004615
0.009820	-0.005571
0.009840	-0.004615
0.009860	-0.005889
0.009880	-0.006846
0.009900	-0.004933
0.009920	-0.005889
0.009940	-0.005571
0.009960	-0.005889
0.009980	-0.005889
0.010000	-0.005252
0.010020	-0.005571
0.010040	-0.004296
0.010060	-0.004296
0.010080	-0.005571
0.010100	-0.004933
0.010120	-0.004933
0.010140	-0.004615
0.010160	-0.004933
0.010180	-0.005889
0.010200	-0.005252
0.010220	-0.006846
0.010240	-0.005889
0.010260	-0.005252
0.010280	-0.005889
0.010300	-0.005252
0.010320	-0.005252
0.010340	-0.005571
0.010360	-0.005252
0.010380	-0.004615
0.010400	-0.003340
0.010420	-0.004296
0.010440	-0.004615
0.010460	-0.004933
0.010480	-0.005252
0.010500	-0.004296
0.010520	-0.005252
0.010540	-0.005252
0.010560	-0.005571
0.010580	-0.006846
0.010600	-0.004933
0.010620	-0.006208
0.010640	-0.004933
0.010660	-0.005252
0.010680	-0.004615
0.010700	-0.004615
0.010720	-0.004933
0.010740	-0.004933
0.010760	-0.003977
0.010780	-0.005252
0.010800	-0.005252
0.010820	-0.005571
0.010840	-0.006208
0.010860	-0.004933
0.010880	-0.005571
0.010900	-0.005252
0.010920	-0.006527
0.010940	-0.006527
0.010960	-0.004933
0.010980	-0.005571
0.011000	-0.004615
0.011020	-0.004933
0.011040	-0.004615
0.011060	-0.003977
0.011080	-0.005252
0.011100	-0.003340
0.011120	-0.004615
0.011140	-0.005252
0.011160	-0.005252
0.011180	-0.005889
0.011200	-0.005571
0.011220	-0.004933
0.011240	-0.005571
0.011260	-0.004933
0.011280	-0.005571
0.011300	-0.004615
0.011320	-0.004615
0.011340	-0.005252
0.011360	-0.003659
0.011380	-0.004615
0.011400	-0.005252
0.011420	-0.004615
0.011440	-0.004615
0.011460	-0.004615
0.011480	-0.005252
0.011500	-0.004615
0.011520	-0.005889
0.011540	-0.007164
0.011560	-0.004615
0.011580	-0.005252
0.011600	-0.004933
0.011620	-0.005252
0.011640	-0.004933
0.011660	-0.004615
0.011680	-0.005571
0.011700	-0.004615
0.011720	-0.003977
0.011740	-0.005889
0.011760	-0.005252
0.011780	-0.005571
0.011800	-0.006527
0.011820	-0.004933
0.011840	-0.005252
0.011860	-0.004933
0.011880	-0.006846
0.011900	-0.005889
0.011920	-0.004296
0.011940	-0.006208
0.011960	-0.005252
0.011980	-0.004615
0.012000	-0.005252
0.012020	-0.004296
0.012040	-0.003977
0.012060	-0.003977
0.012080	-0.005252
0.012100	-0.006208
0.012120	-0.004933
0.012140	-0.006208
0.012160	-0.005889
0.012180	-0.005571
0.012200	-0.005889
0.012220	-0.005889
0.012240	-0.005252
0.012260	-0.004933
0.012280	-0.005252
0.012300	-0.004615
0.012320	-0.003977
0.012340	-0.004296
0.012360	-0.005571
0.012380	-0.005252
0.012400	-0.004933
0.012420	-0.004615
0.012440	-0.005571
0.012460	-0.004615
0.012480	-0.005889
0.012500	-0.006846
0.012520	-0.004615
0.012540	-0.004615
0.012560	-0.004933
0.012580	-0.004933
0.012600	-0.005252
0.012620	-0.004933
0.012640	-0.004933
0.012660	-0.003977
0.012680	-0.004615
0.012700	-0.005571
0.012720	-0.004615
0.012740	-0.005571
0.012760	-0.007164
0.012780	-0.005252
0.012800	-0.005252
0.012820	-0.005889
0.012840	-0.006208
0.012860	-0.005571
0.012880	-0.004933
0.012900	-0.005252
0.012920	-0.004933
0.012940	-0.004296
0.012960	-0.006208
0.012980	-0.004296
0.013000	-0.004933
0.013020	-0.004615
0.013040	-0.005571
0.013060	-0.005571
0.013080	-0.005252
0.013100	-0.005571
0.013120	-0.006208
0.013140	-0.004933
0.013160	-0.005889
0.013180	-0.004933
0.013200	-0.005252
0.013220	-0.004933
0.013240	-0.004615
0.013260	-0.004296
0.013280	-0.003340
0.013300	-0.004615
0.013320	-0.004933
0.013340	-0.004615
0.013360	-0.006208
0.013380	-0.004933
0.013400	-0.004933
0.013420	-0.005571
0.013440	-0.005889
0.013460	-0.005252
0.013480	-0.005252
0.013500	-0.005571
0.013520	-0.004615
0.013540	-0.003659
0.013560	-0.004615
0.013580	-0.004615
0.013600	-0.004615
0.013620	-0.004296
0.013640	-0.004933
0.013660	-0.005252
0.013680	-0.005252
0.013700	-0.004615
0.013720	-0.005889
0.013740	-0.004933
0.013760	-0.006208
0.013780	-0.005252
0.013800	-0.005571
0.013820	-0.005571
0.013840	-0.004615
0.013860	-0.004615
0.013880	-0.003659
0.013900	-0.004615
0.013920	-0.005889
0.013940	-0.004615
0.013960	-0.005252
0.013980	-0.004933
0.014000	-0.005252
0.014020	-0.005889
0.014040	-0.005571
0.014060	-0.006527
0.014080	-0.005571
0.014100	-0.004933
0.014120	-0.005252
0.014140	-0.004296
0.014160	-0.004933
0.014180	-0.005252
0.014200	-0.004615
0.014220	-0.004615
0.014240	-0.002703
0.014260	-0.004615
0.014280	-0.004615
0.014300	-0.004615
0.014320	-0.006208
0.014340	-0.004615
0.014360	-0.005252
0.014380	-0.005889
0.014400	-0.005252
0.014420	-0.005571
0.014440	-0.005571
0.014460	-0.003977
0.014480	-0.004615
0.014500	-0.003977
0.014520	-0.003977
0.014540	-0.005252
0.014560	-0.004615
0.014580	-0.004615
0.014600	-0.004296
0.014620	-0.006208
0.014640	-0.004933
0.014660	-0.005889
0.014680	-0.006208
0.014700	-0.005252
0.014720	-0.005889
0.014740	-0.005889
0.014760	-0.005571
0.014780	-0.005889
0.014800	-0.004615
0.014820	-0.005252
0.014840	-0.003977
0.014860	-0.003977
0.014880	-0.005889
0.014900	-0.004933
0.014920	-0.005252
0.014940	-0.005571
0.014960	-0.005252
0.014980	-0.005571
0.015000	-0.005252
0.015020	-0.006527
0.015040	-0.005571
0.015060	-0.004933
0.015080	-0.005252
0.015100	-0.004615
0.015120	-0.004296
0.015140	-0.005571
0.015160	-0.004615
0.015180	-0.005252
0.015200	-0.003659
0.015220	-0.004615
0.015240	-0.005252
0.015260	-0.005252
0.015280	-0.005252
0.015300	-0.005571
0.015320	-0.004933
0.015340	-0.005252
0.015360	-0.005252
0.015380	-0.006208
0.015400	-0.005252
0.015420	-0.004933
0.015440	-0.004615
0.015460	-0.003977
0.015480	-0.004296
0.015500	-0.004615
0.015520	-0.004615
0.015540	-0.004933
0.015560	-0.003977
0.015580	-0.005252
0.015600	-0.005571
0.015620	-0.005252
0.015640	-0.006846
0.015660	-0.004933
0.015680	-0.005571
0.015700	-0.005252
0.015720	-0.004615
0.015740	-0.005252
0.015760	-0.004615
0.015780	-0.005252
0.015800	-0.004615
0.015820	-0.004296
0.015840	-0.005252
0.015860	-0.005252
0.015880	-0.004933
0.015900	-0.005889
0.015920	-0.005252
0.015940	-0.005571
0.015960	-0.005252
0.015980	-0.006527
0.016000	-0.005889
0.016020	-0.004296
0.016040	-0.004615
0.016060	-0.005252
0.016080	-0.005252
0.016100	-0.004615
0.016120	-0.004296
0.016140	-0.004615
0.016160	-0.003659
0.016180	-0.005252
0.016200	-0.005252
0.016220	-0.004933
0.016240	-0.005571
0.016260	-0.005252
0.016280	-0.005252
0.016300	-0.005252
0.016320	-0.005571
0.016340	-0.005252
0.016360	-0.004933
0.016380	-0.005571
0.016400	-0.004296
0.016420	-0.003659
0.016440	-0.004615
0.016460	-0.004933
0.016480	-0.004615
0.016500	-0.004933
0.016520	-0.004296
0.016540	-0.005252
0.016560	-0.004933
0.016580	-0.006208
0.016600	-0.006846
0.016620	-0.004615
0.016640	-0.005252
0.016660	-0.004933
0.016680	-0.004615
0.016700	-0.004615
0.016720	-0.004933
0.016740	-0.004933
0.016760	-0.003977
0.016780	-0.004615
0.016800	-0.005252
0.016820	-0.003977
0.016840	-0.005252
0.016860	-0.005889
0.016880	-0.005252
0.016900	-0.005252
0.016920	-0.005571
0.016940	-0.006208
0.016960	-0.005889
0.016980	-0.004615
0.017000	-0.005252
0.017020	-0.004296
0.017040	-0.004615
0.017060	-0.005252
0.017080	-0.004933
0.017100	-0.004615
0.017120	-0.003977
0.017140	-0.004933
0.017160	-0.005252
0.017180	-0.004933
0.017200	-0.005889
0.017220	-0.004615
0.017240	-0.005252
0.017260	-0.005889
0.017280	-0.005252
0.017300	-0.005252
0.017320	-0.005571
0.017340	-0.004933
0.017360	-0.004296
0.017380	-0.002703
0.017400	-0.003977
0.017420	-0.005252
0.017440	-0.004615
0.017460	-0.004615
0.017480	-0.004296
0.017500	-0.005252
0.017520	-0.005252
0.017540	-0.006208
0.017560	-0.006527
0.017580	-0.004933
0.017600	-0.005571
0.017620	-0.004615
0.017640	-0.004296
0.017660	-0.005571
0.017680	-0.004296
0.017700	-0.004933
0.017720	-0.003977
0.017740	-0.003977
0.017760	-0.005252
0.017780	-0.003659
0.017800	-0.005252
0.017820	-0.005889
0.017840	-0.004296
0.017860	-0.006208
0.017880	-0.005571
0.017900	-0.005889
0.017920	-0.006846
0.017940	-0.004615
0.017960	-0.005252
0.017980	-0.004615
0.018000	-0.004933
0.018020	-0.005571
0.018040	-0.003977
0.018060	-0.005571
0.018080	-0.004296
0.018100	-0.004615
0.018120	-0.005571
0.018140	-0.005571
0.018160	-0.006208
0.018180	-0.005889
0.018200	-0.005252
0.018220	-0.005571
0.018240	-0.004933
0.018260	-0.005571
0.018280	-0.005252
0.018300	-0.004615
0.018320	-0.004296
0.018340	-0.003659
0.018360	-0.003977
0.018380	-0.004933
0.018400	-0.005252
0.018420	-0.005252
0.018440	-0.004296
0.018460	-0.005571
0.018480	-0.005252
0.018500	-0.005571
0.018520	-0.006208
0.018540	-0.005252
0.018560	-0.005571
0.018580	-0.005252
0.018600	-0.005571
0.018620	-0.005252
0.018640	-0.004615
0.018660	-0.004615
0.018680	-0.004296
0.018700	-0.004296
0.018720	-0.005571
0.018740	-0.005252
0.018760	-0.005252
0.018780	-0.005252
0.018800	-0.004933
0.018820	-0.004933
0.018840	-0.004933
0.018860	-0.005889
0.018880	-0.006527
0.018900	-0.004615
0.018920	-0.004933
0.018940	-0.004933
0.018960	-0.004933
0.018980	-0.004615
0.019000	-0.004933
0.019020	-0.005252
0.019040	-0.003659
0.019060	-0.004933
0.019080	-0.006208
0.019100	-0.004933
0.019120	-0.005252
0.019140	-0.005252
0.019160	-0.005252
0.019180	-0.005571
0.019200	-0.005252
0.019220	-0.005889
0.019240	-0.005252
0.019260	-0.004615
0.019280	-0.004933
0.019300	-0.003340
0.019320	-0.004296
0.019340	-0.004615
0.019360	-0.004615
0.019380	-0.004615
0.019400	-0.005571
0.019420	-0.005571
0.019440	-0.004933
0.019460	-0.004933
0.019480	-0.006846
0.019500	-0.004615
0.019520	-0.005252
0.019540	-0.005571
0.019560	-0.005252
0.019580	-0.004933
0.019600	-0.004615
0.019620	-0.004933
0.019640	-0.003977
0.019660	-0.004296
0.019680	-0.005252
0.019700	-0.004933
0.019720	-0.004296
0.019740	-0.005571
0.019760	-0.005252
0.019780	-0.004933
0.019800	-0.005571
0.019820	-0.006527
0.019840	-0.005252
0.019860	-0.005252
0.019880	-0.005571
0.019900	-0.004615
0.019920	-0.004296
0.019940	-0.005571
0.019960	-0.004615
0.019980	-0.004615
0.020000	-0.003977
0.020020	-0.005252
0.020040	-0.005571
0.020060	-0.004933
0.020080	-0.005571
0.020100	-0.005571
0.020120	-0.004933
0.020140	-0.005571
0.020160	-0.005889
0.020180	-0.005252
0.020200	-0.004933
0.020220	-0.005571
0.020240	-0.004615
0.020260	-0.003659
0.020280	-0.004933
0.020300	-0.004615
0.020320	-0.004296
0.020340	-0.004296
0.020360	-0.004296
0.020380	-0.005571
0.020400	-0.004933
0.020420	-0.005571
0.020440	-0.006527
0.020460	-0.004296
0.020480	-0.005571
0.020500	-0.005252
0.020520	-0.003977
0.020540	-0.004296
0.020560	-0.004615
0.020580	-0.004933
0.020600	-0.004615
0.020620	-0.004296
0.020640	-0.005571
0.020660	-0.004933
0.020680	-0.004933
0.020700	-0.006527
0.020720	-0.005252
0.020740	-0.005252
0.020760	-0.005571
0.020780	-0.006208
0.020800	-0.005889
0.020820	-0.004933
0.020840	-0.005252
0.020860	-0.003977
0.020880	-0.005252
0.020900	-0.005252
0.020920	-0.003977
0.020940	-0.004933
0.020960	-0.003977
0.020980	-0.005252
0.021000	-0.005889
0.021020	-0.005252
0.021040	-0.006208
0.021060	-0.004615
0.021080	-0.004615
0.021100	-0.005571
0.021120	-0.005571
0.021140	-0.005252
0.021160	-0.004933
0.021180	-0.004615
0.021200	-0.004296
0.021220	-0.003659
0.021240	-0.004296
0.021260	-0.004933
0.021280	-0.004615
0.021300	-0.005252
0.021320	-0.004615
0.021340	-0.004615
0.021360	-0.005889
0.021380	-0.005889
0.021400	-0.006208
0.021420	-0.005252
0.021440	-0.005571
0.021460	-0.004615
0.021480	-0.005252
0.021500	-0.005571
0.021520	-0.004296
0.021540	-0.005571
0.021560	-0.004615
0.021580	-0.003977
0.021600	-0.005889
0.021620	-0.004933
0.021640	-0.005889
0.021660	-0.006527
0.021680	-0.005252
0.021700	-0.005889
0.021720	-0.005252
0.021740	-0.005889
0.021760	-0.005889
0.021780	-0.004933
0.021800	-0.004615
0.021820	-0.004933
0.021840	-0.004296
0.021860	-0.005252
0.021880	-0.004615
0.021900	-0.005252
0.021920	-0.004615
0.021940	-0.004933
0.021960	-0.005571
0.021980	-0.005571
0.022000	-0.005889
0.022020	-0.006208
0.022040	-0.005252
0.022060	-0.005252
0.022080	-0.004933
0.022100	-0.005252
0.022120	-0.005252
0.022140	-0.004615
0.022160	-0.004615
0.022180	-0.003021
0.022200	-0.003977
0.022220	-0.005252
0.022240	-0.004296
0.022260	-0.005252
0.022280	-0.004933
0.022300	-0.005252
0.022320	-0.005571
0.022340	-0.005252
0.022360	-0.006527
0.022380	-0.005571
0.022400	-0.004933
0.022420	-0.004933
0.022440	-0.004615
0.022460	-0.004296
0.022480	-0.004615
0.022500	-0.004933
0.022520	-0.004296
0.022540	-0.004296
0.022560	-0.005571
0.022580	-0.005252
0.022600	-0.005252
0.022620	-0.006527
0.022640	-0.004296
0.022660	-0.005571
0.022680	-0.004615
0.022700	-0.006208
0.022720	-0.005252
0.022740	-0.004296
0.022760	-0.005252
0.022780	-0.004615
0.022800	-0.004933
0.022820	-0.005571
0.022840	-0.004296
0.022860	-0.004615
0.022880	-0.004933
0.022900	-0.005252
0.022920	-0.005571
0.022940	-0.004296
0.022960	-0.006208
0.022980	-0.005889
0.023000	-0.004933
0.023020	-0.005571
0.023040	-0.005252
0.023060	-0.004296
0.023080	-0.005252
0.023100	-0.004615
0.023120	-0.003977
0.023140	-0.002384
0.023160	-0.004296
0.023180	-0.005571
0.023200	-0.004296
0.023220	-0.004933
0.023240	-0.005889
0.023260	-0.004933
0.023280	-0.005571
0.023300	-0.005889
0.023320	-0.005252
0.023340	-0.004615
0.023360	-0.005252
0.023380	-0.005252
0.023400	-0.003659
0.023420	-0.003977
0.023440	-0.004615
0.023460	-0.004296
0.023480	-0.004296
0.023500	-0.003977
0.023520	-0.005571
0.023540	-0.004296
0.023560	-0.005252
0.023580	-0.006208
0.023600	-0.004933
0.023620	-0.005252
0.023640	-0.004933
0.023660	-0.004933
0.023680	-0.005252
0.023700	-0.004615
0.023720	-0.004615
0.023740	-0.004296
0.023760	-0.004296
0.023780	-0.004933
0.023800	-0.004615
0.023820	-0.004615
0.023840	-0.005252
0.023860	-0.005252
0.023880	-0.004933
0.023900	-0.005571
0.023920	-0.006527
0.023940	-0.005571
0.023960	-0.004615
0.023980	-0.004933
0.024000	-0.003977
0.024020	-0.003659
0.024040	-0.005252
0.024060	-0.004615
0.024080	-0.003977
0.024100	-0.003340
0.024120	-0.004296
0.024140	-0.004933
0.024160	-0.004615
0.024180	-0.005252
0.024200	-0.004933
0.024220	-0.004615
0.024240	-0.004933
0.024260	-0.004933
0.024280	-0.005252
0.024300	-0.004296
0.024320	-0.004615
0.024340	-0.003659
0.024360	-0.003021
0.024380	-0.003340
0.024400	-0.004615
0.024420	-0.004296
0.024440	-0.003659
0.024460	-0.003977
0.024480	-0.005252
0.024500	-0.003977
0.024520	-0.004933
0.024540	-0.005571
0.024560	-0.003977
0.024580	-0.004615
0.024600	-0.005252
0.024620	-0.004296
0.024640	-0.004615
0.024660	-0.004296
0.024680	-0.003977
0.024700	-0.003659
0.024720	-0.004296
0.024740	-0.004296
0.024760	-0.003977
0.024780	-0.004615
0.024800	-0.004615
0.024820	-0.004296
0.024840	-0.004615
0.024860	-0.004933
0.024880	-0.005252
0.024900	-0.004933
0.024920	-0.003977
0.024940	-0.003977
0.024960	-0.003659
0.024980	-0.003977
0.025000	-0.004615
0.025020	-0.003659
0.025040	-0.003977
0.025060	-0.002384
0.025080	-0.003977
0.025100	-0.004296
0.025120	-0.003659
0.025140	-0.004615
0.025160	-0.003977
0.025180	-0.003977
0.025200	-0.004615
0.025220	-0.003977
0.025240	-0.004615
0.025260	-0.003659
0.025280	-0.003340
0.025300	-0.003977
0.025320	-0.002384
0.025340	-0.002065
0.025360	-0.003659
0.025380	-0.003021
0.025400	-0.002703
0.025420	-0.002703
0.025440	-0.003659
0.025460	-0.003340
0.025480	-0.003977
0.025500	-0.005252
0.025520	-0.003977
0.025540	-0.004296
0.025560	-0.002703
0.025580	-0.003340
0.025600	-0.003659
0.025620	-0.002384
0.025640	-0.003021
0.025660	-0.001428
0.025680	-0.002384
0.025700	-0.002384
0.025720	-0.002065
0.025740	-0.003021
0.025760	-0.003659
0.025780	-0.002384
0.025800	-0.003340
0.025820	-0.002384
0.025840	-0.003977
0.025860	-0.003977
0.025880	-0.002384
0.025900	-0.003340
0.025920	-0.001428
0.025940	0.000803
0.025960	0.004627
0.025980	0.010682
0.026000	0.018011
0.026020	0.027571
0.026040	0.033308
0.026060	0.035538
0.026080	0.033945
0.026100	0.027571
0.026120	0.021198
0.026140	0.018967
0.026160	0.019286
0.026180	0.023429
0.026200	0.028528
0.026220	0.031714
0.026240	0.030758
0.026260	0.026615
0.026280	0.022154
0.026300	0.018649
0.026320	0.018967
0.026340	0.020242
0.026360	0.025341
0.026380	0.028528
0.026400	0.028209
0.026420	0.025978
0.026440	0.021198
0.026460	0.016099
0.026480	0.017055
0.026500	0.018649
0.026520	0.022473
0.026540	0.025022
0.026560	0.026615
0.026580	0.025341
0.026600	0.020879
0.026620	0.019286
0.026640	0.018011
0.026660	0.018330
0.026680	0.021198
0.026700	0.024385
0.026720	0.025022
0.026740	0.023747
0.026760	0.022791
0.026780	0.020242
0.026800	0.017374
0.026820	0.018967
0.026840	0.022473
0.026860	0.025022
0.026880	0.026615
0.026900	0.027253
0.026920	0.026297
0.026940	0.022791
0.026960	0.022473
0.026980	0.024703
0.027000	0.024066
0.027020	0.026615
0.027040	0.028209
0.027060	0.028209
0.027080	0.027253
0.027100	0.025341
0.027120	0.024385
0.027140	0.023110
0.027160	0.023747
0.027180	0.027890
0.027200	0.028209
0.027220	0.029484
0.027240	0.029165
0.027260	0.027253
0.027280	0.026615
0.027300	0.025659
0.027320	0.027571
0.027340	0.028528
0.027360	0.029484
0.027380	0.031714
0.027400	0.029802
0.027420	0.028209
0.027440	0.028528
0.027460	0.027571
0.027480	0.028528
0.027500	0.027571
0.027520	0.030758
0.027540	0.031714
0.027560	0.031396
0.027580	0.030758
0.027600	0.030121
0.027620	0.028528
0.027640	0.029165
0.027660	0.030440
0.027680	0.032033
0.027700	0.032033
0.027720	0.032033
0.027740	0.031077
0.027760	0.030440
0.027780	0.028846
0.027800	0.029802
0.027820	0.030121
0.027840	0.031077
0.027860	0.031714
0.027880	0.032033
0.027900	0.031396
0.027920	0.031077
0.027940	0.032033
0.027960	0.030440
0.027980	0.031396
0.028000	0.030758
0.028020	0.032033
0.028040	0.032670
0.028060	0.031714
0.028080	0.032352
0.028100	0.030758
0.028120	0.029802
0.028140	0.030440
0.028160	0.030758
0.028180	0.032670
0.028200	0.032033
0.028220	0.032670
0.028240	0.032670
0.028260	0.030758
0.028280	0.032352
0.028300	0.032033
0.028320	0.031396
0.028340	0.033308
0.028360	0.032670
0.028380	0.032670
0.028400	0.032670
0.028420	0.032033
0.028440	0.032033
0.028460	0.030758
0.028480	0.031396
0.028500	0.032352
0.028520	0.033626
0.028540	0.033626
0.028560	0.033945
0.028580	0.033308
0.028600	0.032670
0.028620	0.032352
0.028640	0.034264
0.028660	0.033308
0.028680	0.033626
0.028700	0.034264
0.028720	0.033626
0.028740	0.033626
0.028760	0.033945
0.028780	0.032989
0.028800	0.033626
0.028820	0.033945
0.028840	0.034582
0.028860	0.035538
0.028880	0.034264
0.028900	0.035857
0.028920	0.034264
0.028940	0.034582
0.028960	0.034264
0.028980	0.034582
0.029000	0.034582
0.029020	0.035220
0.029040	0.036176
0.029060	0.035538
0.029080	0.033945
0.029100	0.035538
0.029120	0.035220
0.029140	0.035857
0.029160	0.035220
0.029180	0.037132
0.029200	0.036813
0.029220	0.036813
0.029240	0.037769
0.029260	0.037769
0.029280	0.036494
0.029300	0.038406
0.029320	0.037769
0.029340	0.037769
0.029360	0.037769
0.029380	0.038725
0.029400	0.039044
0.029420	0.037132
0.029440	0.039363
0.029460	0.039363
0.029480	0.039044
0.029500	0.040637
0.029520	0.041593
0.029540	0.039681
0.029560	0.040956
0.029580	0.040637
0.029600	0.042231
0.029620	0.040956
0.029640	0.041912
0.029660	0.041912
0.029680	0.041275
0.029700	0.041593
0.029720	0.042549
0.029740	0.042549
0.029760	0.042231
0.029780	0.043187
0.029800	0.043505
0.029820	0.043505
0.029840	0.043187
0.029860	0.044780
0.029880	0.043824
0.029900	0.044143
0.029920	0.044461
0.029940	0.044461
0.029960	0.043187
0.029980	0.044143
0.030000	0.045099
0.030020	0.043824
0.030040	0.043505
0.030060	0.045417
0.030080	0.044143
0.030100	0.045417
0.030120	0.045099
0.030140	0.045736
0.030160	0.045736
0.030180	0.045736
0.030200	0.046692
0.030220	0.046055
0.030240	0.045736
0.030260	0.047329
0.030280	0.046373
0.030300	0.045736
0.030320	0.047011
0.030340	0.046055
0.030360	0.046692
0.030380	0.046055
0.030400	0.046692
0.030420	0.047648
0.030440	0.047011
0.030460	0.047648
0.030480	0.047967
0.030500	0.047329
0.030520	0.048285
0.030540	0.047329
0.030560	0.049879
0.030580	0.047648
0.030600	0.048285
0.030620	0.048285
0.030640	0.046692
0.030660	0.049241
0.030680	0.048923
0.030700	0.048923
0.030720	0.049560
0.030740	0.049560
0.030760	0.049560
0.030780	0.049560
0.030800	0.050516
0.030820	0.050835
0.030840	0.050516
0.030860	0.051791
0.030880	0.050516
0.030900	0.050516
0.030920	0.050835
0.030940	0.050516
0.030960	0.051791
0.030980	0.050835
0.031000	0.050835
0.031020	0.052428
0.031040	0.051472
0.031060	0.052747
0.031080	0.053066
0.031100	0.052747
0.031120	0.053703
0.031140	0.053384
0.031160	0.054978
0.031180	0.053703
0.031200	0.054022
0.031220	0.054659
0.031240	0.054340
0.031260	0.053384
0.031280	0.054978
0.031300	0.054340
0.031320	0.054978
0.031340	0.054659
0.031360	0.054659
0.031380	0.056252
0.031400	0.056252
0.031420	0.056890
0.031440	0.057527
0.031460	0.056252
0.031480	0.057527
0.031500	0.056890
0.031520	0.059439
0.031540	0.058483
0.031560	0.057846
0.031580	0.058483
0.031600	0.057846
0.031620	0.059120
0.031640	0.059439
0.031660	0.059758
0.031680	0.059758
0.031700	0.059120
0.031720	0.061032
0.031740	0.060395
0.031760	0.061032
0.031780	0.062945
0.031800	0.062307
0.031820	0.062626
0.031840	0.061989
0.031860	0.062945
0.031880	0.063582
0.031900	0.063263
0.031920	0.063582
0.031940	0.063582
0.031960	0.062626
0.031980	0.065175
0.032000	0.064538
0.032020	0.065813
0.032040	0.066769
0.032060	0.066450
0.032080	0.067406
0.032100	0.066450
0.032120	0.067725
0.032140	0.068043
0.032160	0.068362
0.032180	0.069955
0.032200	0.068999
0.032220	0.068999
0.032240	0.070274
0.032260	0.070274
0.032280	0.070593
0.032300	0.070274
0.032320	0.071867
0.032340	0.071867
0.032360	0.072186
0.032380	0.073142
0.032400	0.074417
0.032420	0.074417
0.032440	0.075054
0.032460	0.075692
0.032480	0.076966
0.032500	0.075692
0.032520	0.076329
0.032540	0.077604
0.032560	0.077285
0.032580	0.077604
0.032600	0.079197
0.032620	0.079197
0.032640	0.079834
0.032660	0.080472
0.032680	0.081428
0.032700	0.081428
0.032720	0.083021
0.032740	0.083977
0.032760	0.083977
0.032780	0.084933
0.032800	0.085571
0.032820	0.086527
0.032840	0.086527
0.032860	0.086527
0.032880	0.088120
0.032900	0.087801
0.032920	0.087483
0.032940	0.090351
0.032960	0.090032
0.032980	0.091307
0.033000	0.092263
0.033020	0.093537
0.033040	0.093219
0.033060	0.093537
0.033080	0.095449
0.033100	0.095768
0.033120	0.095768
0.033140	0.097680
0.033160	0.097999
0.033180	0.097362
0.033200	0.099274
0.033220	0.099911
0.033240	0.100548
0.033260	0.100230
0.033280	0.102142
0.033300	0.103416
0.033320	0.103098
0.033340	0.105010
0.033360	0.106284
0.033380	0.105647
0.033400	0.108197
0.033420	0.108197
0.033440	0.110427
0.033460	0.109790
0.033480	0.111065
0.033500	0.111383
0.033520	0.112021
0.033540	0.112658
0.033560	0.114251
0.033580	0.115526
0.033600	0.116482
0.033620	0.117757
0.033640	0.118075
0.033660	0.119350
0.033680	0.120944
0.033700	0.122218
0.033720	0.123174
0.033740	0.124449
0.033760	0.125724
0.033780	0.126998
0.033800	0.127636
0.033820	0.128592
0.033840	0.130185
0.033860	0.130185
0.033880	0.130823
0.033900	0.133691
0.033920	0.134009
0.033940	0.136240
0.033960	0.136877
0.033980	0.138789
0.034000	0.139745
0.034020	0.141339
0.034040	0.144207
0.034060	0.145163
0.034080	0.144844
0.034100	0.147712
0.034120	0.148668
0.034140	0.149943
0.034160	0.151536
0.034180	0.152811
0.034200	0.154723
0.034220	0.155361
0.034240	0.156317
0.034260	0.159503
0.034280	0.161097
0.034300	0.163009
0.034320	0.163965
0.034340	0.165877
0.034360	0.168108
0.034380	0.169701
0.034400	0.172569
0.034420	0.172569
0.034440	0.174481
0.034460	0.176712
0.034480	0.177349
0.034500	0.178943
0.034520	0.181492
0.034540	0.183085
0.034560	0.184997
0.034580	0.187866
0.034600	0.190096
0.034620	0.191690
0.034640	0.193920
0.034660	0.197744
0.034680	0.199019
0.034700	0.200931
0.034720	0.202843
0.034740	0.205393
0.034760	0.207942
0.034780	0.208898
0.034800	0.212404
0.034820	0.213678
0.034840	0.214634
0.034860	0.219096
0.034880	0.220370
0.034900	0.223557
0.034920	0.226744
0.034940	0.229931
0.034960	0.232799
0.034980	0.235030
0.035000	0.237579
0.035020	0.240447
0.035040	0.242678
0.035060	0.245865
0.035080	0.248733
0.035100	0.250645
0.035120	0.255106
0.035140	0.257974
0.035160	0.260842
0.035180	0.262754
0.035200	0.266578
0.035220	0.270403
0.035240	0.273271
0.035260	0.276776
0.035280	0.280282
0.035300	0.283150
0.035320	0.286336
0.035340	0.290479
0.035360	0.294622
0.035380	0.296853
0.035400	0.300677
0.035420	0.304820
0.035440	0.308006
0.035460	0.310556
0.035480	0.314699
0.035500	0.319160
0.035520	0.322347
0.035540	0.326808
0.035560	0.330314
0.035580	0.334138
0.035600	0.338918
0.035620	0.344335
0.035640	0.347841
0.035660	0.351665
0.035680	0.355808
0.035700	0.360588
0.035720	0.365049
0.035740	0.368555
0.035760	0.373654
0.035780	0.377796
0.035800	0.380665
0.035820	0.387675
0.035840	0.391818
0.035860	0.396598
0.035880	0.400741
0.035900	0.407433
0.035920	0.412213
0.035940	0.416675
0.035960	0.423048
0.035980	0.428466
0.036000	0.432927
0.036020	0.439620
0.036040	0.444400
0.036060	0.448861
0.036080	0.455235
0.036100	0.460971
0.036120	0.466388
0.036140	0.471487
0.036160	0.478498
0.036180	0.484234
0.036200	0.490289
0.036220	0.497300
0.036240	0.504311
0.036260	0.509410
0.036280	0.516739
0.036300	0.523431
0.036320	0.531398
0.036340	0.535860
0.036360	0.542552
0.036380	0.548925
0.036400	0.554980
0.036420	0.562310
0.036440	0.569958
0.036460	0.576332
0.036480	0.583661
0.036500	0.591628
0.036520	0.599914
0.036540	0.605968
0.036560	0.612979
0.036580	0.623177
0.036600	0.627957
0.036620	0.637199
0.036640	0.644210
0.036660	0.651858
0.036680	0.659825
0.036700	0.667792
0.036720	0.675440
0.036740	0.682132
0.036760	0.688506
0.036780	0.699341
0.036800	0.706351
0.036820	0.715274
0.036840	0.722604
0.036860	0.730889
0.036880	0.740131
0.036900	0.748098
0.036920	0.756702
0.036940	0.764988
0.036960	0.771680
0.036980	0.780603
0.037000	0.787932
0.037020	0.795581
0.037040	0.804504
0.037060	0.812470
0.037080	0.820756
0.037100	0.827448
0.037120	0.836053
0.037140	0.844975
0.037160	0.851030
0.037180	0.860591
0.037200	0.869195
0.037220	0.874931
0.037240	0.883535
0.037260	0.890865
0.037280	0.900106
0.037300	0.903930
0.037320	0.911260
0.037340	0.917634
0.037360	0.922732
0.037380	0.930381
0.037400	0.936754
0.037420	0.943128
0.037440	0.948864
0.037460	0.953325
0.037480	0.959380
0.037500	0.964160
0.037520	0.969259
0.037540	0.975633
0.037560	0.977545
0.037580	0.983281
0.037600	0.985830
0.037620	0.989973
0.037640	0.993160
0.037660	0.995072
0.037680	0.998259
0.037700	0.999533
0.037720	0.999852
0.037740	1.003676
0.037760	1.004632
0.037780	1.006863
0.037800	1.005907
0.037820	1.007819
0.037840	1.009094
0.037860	1.006863
0.037880	1.007500
0.037900	1.006225
0.037920	1.003676
0.037940	1.003039
0.037960	0.999533
0.037980	0.997621
0.038000	0.995072
0.038020	0.991566
0.038040	0.989017
0.038060	0.982962
0.038080	0.979775
0.038100	0.975951
0.038120	0.970852
0.038140	0.965754
0.038160	0.961930
0.038180	0.952688
0.038200	0.944402
0.038220	0.935798
0.038240	0.928469
0.038260	0.915722
0.038280	0.907755
0.038300	0.901700
0.038320	0.895008
0.038340	0.888953
0.038360	0.880986
0.038380	0.872382
0.038400	0.859953
0.038420	0.849756
0.038440	0.841151
0.038460	0.830954
0.038480	0.823305
0.038500	0.816613
0.038520	0.806734
0.038540	0.795899
0.038560	0.784108
0.038580	0.773592
0.038600	0.761164
0.038620	0.749054
0.038640	0.740450
0.038660	0.730252
0.038680	0.718461
0.038700	0.710813
0.038720	0.698384
0.038740	0.686912
0.038760	0.672572
0.038780	0.662693
0.038800	0.651220
0.038820	0.638473
0.038840	0.629869
0.038860	0.619034
0.038880	0.606606
0.038900	0.595452
0.038920	0.584936
0.038940	0.574420
0.038960	0.562628
0.038980	0.553706
0.039000	0.544145
0.039020	0.532673
0.039040	0.523113
0.039060	0.513552
0.039080	0.502080
0.039100	0.492838
0.039120	0.484553
0.039140	0.474037
0.039160	0.465751
0.039180	0.457465
0.039200	0.449817
0.039220	0.438345
0.039240	0.429741
0.039260	0.420818
0.039280	0.412213
0.039300	0.404565
0.039320	0.396280
0.039340	0.387994
0.039360	0.379708
0.039380	0.372379
0.039400	0.365049
0.039420	0.357082
0.039440	0.349116
0.039460	0.343379
0.039480	0.335413
0.039500	0.329039
0.039520	0.322028
0.039540	0.315336
0.039560	0.308325
0.039580	0.300677
0.039600	0.294622
0.039620	0.286974
0.039640	0.279644
0.039660	0.275820
0.039680	0.269765
0.039700	0.263392
0.039720	0.257018
0.039740	0.251282
0.039760	0.244271
0.039780	0.238535
0.039800	0.234392
0.039820	0.228337
0.039840	0.222920
0.039860	0.219096
0.039880	0.213678
0.039900	0.208579
0.039920	0.202206
0.039940	0.196788
0.039960	0.191371
0.039980	0.185316
0.040000	0.181492
0.040020	0.177668
0.040040	0.172569
0.040060	0.169701
0.040080	0.163965
0.040100	0.157910
0.040120	0.153130
0.040140	0.148987
0.040160	0.146438
0.040180	0.141020
0.040200	0.137833
0.040220	0.134647
0.040240	0.129866
0.040260	0.126361
0.040280	0.121262
0.040300	0.116801
0.040320	0.112021
0.040340	0.108834
0.040360	0.106603
0.040380	0.103735
0.040400	0.101504
0.040420	0.098318
0.040440	0.095131
0.040460	0.090351
0.040480	0.085571
0.040500	0.083977
0.040520	0.081109
0.040540	0.077922
0.040560	0.076966
0.040580	0.074736
0.040600	0.071230
0.040620	0.068681
0.040640	0.066450
0.040660	0.064538
0.040680	0.061032
0.040700	0.060714
0.040720	0.059758
0.040740	0.057208
0.040760	0.056252
0.040780	0.054022
0.040800	0.050516
0.040820	0.048604
0.040840	0.046692
0.040860	0.045099
0.040880	0.045099
0.040900	0.042868
0.040920	0.042231
0.040940	0.038088
0.040960	0.035857
0.040980	0.034901
0.041000	0.032352
0.041020	0.032033
0.041040	0.031714
0.041060	0.030758
0.041080	0.029484
0.041100	0.028209
0.041120	0.027571
0.041140	0.024385
0.041160	0.022791
0.041180	0.021835
0.041200	0.020242
0.041220	0.020242
0.041240	0.020242
0.041260	0.019286
0.041280	0.018011
0.041300	0.016418
0.041320	0.015462
0.041340	0.013868
0.041360	0.013231
0.041380	0.013868
0.041400	0.012912
0.041420	0.012275
0.041440	0.010682
0.041460	0.011319
0.041480	0.009726
0.041500	0.006539
0.041520	0.006858
0.041540	0.004945
0.041560	0.003033
0.041580	0.004945
0.041600	0.003989
0.041620	0.003989
0.041640	0.002715
0.041660	0.002396
0.041680	0.002077
0.041700	-0.000153
0.041720	-0.000153
0.041740	-0.000472
0.041760	-0.002703
0.041780	-0.003021
0.041800	-0.003340
0.041820	-0.005252
0.041840	-0.004933
0.041860	-0.006208
0.041880	-0.005889
0.041900	-0.007802
0.041920	-0.008758
0.041940	-0.007164
0.041960	-0.007802
0.041980	-0.007802
0.042000	-0.008120
0.042020	-0.009395
0.042040	-0.009714
0.042060	-0.010670
0.042080	-0.010032
0.042100	-0.011307
0.042120	-0.012582
0.042140	-0.011626
0.042160	-0.012582
0.042180	-0.012582
0.042200	-0.012582
0.042220	-0.014175
0.042240	-0.014494
0.042260	-0.013856
0.042280	-0.013856
0.042300	-0.013219
0.042320	-0.013538
0.042340	-0.012263
0.042360	-0.013856
0.042380	-0.014175
0.042400	-0.014494
0.042420	-0.015450
0.042440	-0.015450
0.042460	-0.015131
0.042480	-0.015131
0.042500	-0.015131
0.042520	-0.016406
0.042540	-0.014494
0.042560	-0.014494
0.042580	-0.015450
0.042600	-0.015131
0.042620	-0.014812
0.042640	-0.014494
0.042660	-0.014494
0.042680	-0.012900
0.042700	-0.014175
0.042720	-0.015450
0.042740	-0.014175
0.042760	-0.015450
0.042780	-0.016724
0.042800	-0.014812
0.042820	-0.015450
0.042840	-0.015131
0.042860	-0.015768
0.042880	-0.015450
0.042900	-0.013856
0.042920	-0.015131
0.042940	-0.013538
0.042960	-0.014175
0.042980	-0.015450
0.043000	-0.014494
0.043020	-0.014494
0.043040	-0.014494
0.043060	-0.014494
0.043080	-0.015450
0.043100	-0.015768
0.043120	-0.016724
0.043140	-0.016406
0.043160	-0.015450
0.043180	-0.016406
0.043200	-0.015450
0.043220	-0.015768
0.043240	-0.016406
0.043260	-0.015450
0.043280	-0.015768
0.043300	-0.014812
0.043320	-0.015450
0.043340	-0.016087
0.043360	-0.016087
0.043380	-0.015768
0.043400	-0.015450
0.043420	-0.015768
0.043440	-0.016406
0.043460	-0.016406
0.043480	-0.017680
0.043500	-0.015768
0.043520	-0.015768
0.043540	-0.015768
0.043560	-0.015450
0.043580	-0.016087
0.043600	-0.015131
0.043620	-0.014812
0.043640	-0.013856
0.043660	-0.014494
0.043680	-0.015768
0.043700	-0.015131
0.043720	-0.015450
0.043740	-0.016406
0.043760	-0.014494
0.043780	-0.014812
0.043800	-0.014175
0.043820	-0.014494
0.043840	-0.015131
0.043860	-0.013538
0.043880	-0.013856
0.043900	-0.012582
0.043920	-0.012263
0.043940	-0.012582
0.043960	-0.011626
0.043980	-0.011626
0.044000	-0.010988
0.044020	-0.011626
0.044040	-0.012263
0.044060	-0.012263
0.044080	-0.011944
0.044100	-0.011626
0.044120	-0.010670
0.044140	-0.010988
0.044160	-0.010670
0.044180	-0.010351
0.044200	-0.009714
0.044220	-0.010032
0.044240	-0.009714
0.044260	-0.008439
0.044280	-0.008120
0.044300	-0.008758
0.044320	-0.008439
0.044340	-0.008758
0.044360	-0.008439
0.044380	-0.009395
0.044400	-0.008758
0.044420	-0.009076
0.044440	-0.010032
0.044460	-0.007802
0.044480	-0.007483
0.044500	-0.007164
0.044520	-0.006846
0.044540	-0.007164
0.044560	-0.006846
0.044580	-0.007483
0.044600	-0.006208
0.044620	-0.006846
0.044640	-0.005889
0.044660	-0.005889
0.044680	-0.005571
0.044700	-0.005571
0.044720	-0.005571
0.044740	-0.006208
0.044760	-0.004615
0.044780	-0.006527
0.044800	-0.005571
0.044820	-0.003977
0.044840	-0.002065
0.044860	-0.001109
0.044880	-0.001109
0.044900	-0.003659
0.044920	-0.004296
0.044940	-0.005252
0.044960	-0.002384
0.044980	-0.002703
0.045000	-0.001747
0.045020	-0.000472
0.045040	-0.002384
0.045060	-0.000791
0.045080	-0.000472
0.045100	-0.001747
0.045120	-0.002703
0.045140	-0.002703
0.045160	-0.001428
0.045180	-0.000153
0.045200	0.000165
0.045220	0.002077
0.045240	0.001121
0.045260	-0.000153
0.045280	-0.000791
0.045300	-0.000153
0.045320	0.000803
0.045340	0.001121
0.045360	0.002077
0.045380	0.001759
0.045400	0.000803
0.045420	0.002396
0.045440	0.002715
0.045460	0.002715
0.045480	0.002077
0.045500	0.003352
0.045520	0.004627
0.045540	0.005264
0.045560	0.007176
0.045580	0.006858
0.045600	0.005264
0.045620	0.006220
0.045640	0.005583
0.045660	0.006220
0.045680	0.007495
0.045700	0.008451
0.045720	0.008132
0.045740	0.006858
0.045760	0.007814
0.045780	0.009088
0.045800	0.008132
0.045820	0.009726
0.045840	0.009726
0.045860	0.008770
0.045880	0.009407
0.045900	0.009726
0.045920	0.011000
0.045940	0.008451
0.045960	0.007814
0.045980	0.008451
0.046000	0.006539
0.046020	0.007495
0.046040	0.007814
0.046060	0.006220
0.046080	0.006220
0.046100	0.005902
0.046120	0.006220
0.046140	0.006539
0.046160	0.006539
0.046180	0.006539
0.046200	0.005902
0.046220	0.004945
0.046240	0.005264
0.046260	0.004945
0.046280	0.004308
0.046300	0.003352
0.046320	0.002715
0.046340	0.002396
0.046360	0.001440
0.046380	0.002715
0.046400	0.002077
0.046420	0.002077
0.046440	0.001759
0.046460	0.002077
0.046480	0.001759
0.046500	0.001759
0.046520	0.002396
0.046540	0.002077
0.046560	0.001440
0.046580	0.002077
0.046600	0.001121
0.046620	-0.000153
0.046640	0.001759
0.046660	0.001759
0.046680	0.001759
0.046700	0.001440
0.046720	0.001440
0.046740	0.002396
0.046760	0.001759
0.046780	0.002396
0.046800	0.002077
0.046820	0.001440
0.046840	0.002396
0.046860	0.002077
0.046880	0.003033
0.046900	0.002077
0.046920	0.001440
0.046940	0.002396
0.046960	0.001440
0.046980	0.001759
0.047000	0.003033
0.047020	0.001440
0.047040	0.002077
0.047060	0.002396
0.047080	0.002077
0.047100	0.002715
0.047120	0.003352
0.047140	0.003989
0.047160	0.002396
0.047180	0.001759
0.047200	0.002077
0.047220	0.001440
0.047240	0.001759
0.047260	0.002077
0.047280	0.001440
0.047300	0.001121
0.047320	0.000165
0.047340	0.001759
0.047360	0.001759
0.047380	0.002396
0.047400	0.001759
0.047420	0.001121
0.047440	0.001759
0.047460	0.002077
0.047480	0.002396
0.047500	0.001440
0.047520	0.000803
0.047540	0.001121
0.047560	0.000803
0.047580	-0.000791
0.047600	0.000165
0.047620	-0.000472
0.047640	0.001121
0.047660	0.000484
0.047680	-0.000153
0.047700	0.000165
0.047720	0.000165
0.047740	0.001121
0.047760	0.000803
0.047780	0.000165
0.047800	0.001121
0.047820	0.000484
0.047840	0.001121
0.047860	0.001121
0.047880	0.000165
0.047900	-0.000472
0.047920	-0.001747
0.047940	-0.001428
0.047960	0.001121
0.047980	0.000803
0.048000	0.000484
0.048020	0.001121
0.048040	0.001440
0.048060	0.001759
0.048080	0.000165
0.048100	0.001759
0.048120	0.001121
0.048140	0.001121
0.048160	0.001440
0.048180	0.000484
0.048200	0.001121
0.048220	0.001759
0.048240	0.001759
0.048260	0.001759
0.048280	0.000484
0.048300	0.001440
0.048320	0.002077
0.048340	0.002715
0.048360	0.003352
0.048380	0.002396
0.048400	0.003352
0.048420	0.003671
0.048440	0.003352
0.048460	0.003989
0.048480	0.001759
0.048500	0.002077
0.048520	0.003352
0.048540	0.002077
0.048560	0.003989
0.048580	0.002077
0.048600	0.002396
0.048620	0.002715
0.048640	0.002715
0.048660	0.003989
0.048680	0.002715
0.048700	0.003989
0.048720	0.004627
0.048740	0.003352
0.048760	0.003033
0.048780	0.002715
0.048800	0.003033
0.048820	0.003033
0.048840	0.003352
0.048860	0.002077
0.048880	0.000803
0.048900	0.001440
0.048920	0.002715
0.048940	0.002396
0.048960	0.002396
0.048980	0.001759
0.049000	0.002396
0.049020	0.003033
0.049040	0.001759
0.049060	0.003033
0.049080	0.001121
0.049100	-0.000153
0.049120	0.000803
0.049140	0.000484
0.049160	-0.000472
0.049180	0.000165
0.049200	0.000484
0.049220	0.000165
0.049240	-0.001747
0.049260	-0.001109
0.049280	-0.002065
0.049300	-0.001747
0.049320	-0.000791
0.049340	-0.001747
0.049360	-0.002703
0.049380	-0.002384
0.049400	-0.003021
0.049420	-0.003021
0.049440	-0.005252
0.049460	-0.005252
0.049480	-0.006208
0.049500	-0.006527
0.049520	-0.004933
0.049540	-0.005571
0.049560	-0.006208
0.049580	-0.006846
0.049600	-0.005571
0.049620	-0.004615
0.049640	-0.006527
0.049660	-0.005571
0.049680	-0.005252
0.049700	-0.005252
0.049720	-0.004296
0.049740	-0.005571
0.049760	-0.005252
0.049780	-0.005252
0.049800	-0.004933
0.049820	-0.004933
0.049840	-0.006527
0.049860	-0.006208
0.049880	-0.004296
0.049900	-0.003977
0.049920	-0.003977
0.049940	-0.003659
0.049960	-0.004615
0.049980	-0.002703
0.050000	-0.002384
0.050020	-0.001109
0.050040	-0.002065
0.050060	-0.003021
0.050080	-0.002065
0.050100	-0.002065
0.050120	-0.002065
0.050140	-0.002065
0.050160	-0.001747
0.050180	-0.001109
0.050200	-0.001109
0.050220	-0.001109
0.050240	-0.001428
0.050260	-0.000472
0.050280	0.001121
0.050300	0.000803
0.050320	0.000165
0.050340	0.000803
0.050360	0.000803
0.050380	0.000803
0.050400	0.000803
0.050420	0.000484
0.050440	-0.001428
0.050460	-0.001428
0.050480	0.001121
0.050500	0.001121
0.050520	0.000803
0.050540	-0.000153
0.050560	0.000803
0.050580	0.001440
0.050600	0.000165
0.050620	0.000803
0.050640	0.000165
0.050660	0.000165
0.050680	0.001121
0.050700	0.000484
0.050720	0.000484
0.050740	0.000165
0.050760	-0.000472
0.050780	-0.000153
0.050800	-0.001109
0.050820	-0.001428
0.050840	-0.000153
0.050860	-0.000472
0.050880	0.000484
0.050900	0.000484
0.050920	-0.001109
0.050940	0.000165
0.050960	-0.000153
0.050980	0.001121
0.051000	-0.000472
0.051020	-0.001428
0.051040	-0.001428
0.051060	-0.000791
0.051080	-0.001428
0.051100	-0.000472
0.051120	-0.002065
0.051140	-0.002065
0.051160	-0.002065
0.051180	-0.002065
0.051200	-0.001428
0.051220	-0.001747
0.051240	-0.000472
0.051260	-0.000791
0.051280	-0.001109
0.051300	-0.001428
0.051320	-0.001747
0.051340	-0.001428
0.051360	-0.001428
0.051380	-0.002065
0.051400	-0.003340
0.051420	-0.004296
0.051440	-0.001747
0.051460	-0.002703
0.051480	-0.002065
0.051500	-0.002384
0.051520	-0.002065
0.051540	-0.000791
0.051560	-0.001428
0.051580	-0.000791
0.051600	-0.001747
0.051620	-0.003021
0.051640	-0.001428
0.051660	-0.001109
0.051680	-0.001428
0.051700	-0.002065
0.051720	-0.002703
0.051740	-0.000791
0.051760	-0.002065
0.051780	-0.003021
0.051800	-0.001747
0.051820	-0.001747
0.051840	-0.000791
0.051860	-0.000153
0.051880	-0.001428
0.051900	-0.000153
0.051920	-0.001428
0.051940	0.001440
0.051960	0.000165
0.051980	-0.001747
0.052000	-0.001109
0.052020	-0.001109
0.052040	-0.001109
0.052060	-0.000153
0.052080	-0.001109
0.052100	-0.001109
0.052120	-0.001747
0.052140	-0.000791
0.052160	-0.000153
0.052180	-0.001109
0.052200	-0.000472
0.052220	0.000165
0.052240	-0.000472
0.052260	-0.000472
0.052280	-0.000791
0.052300	-0.000153
0.052320	-0.001428
0.052340	-0.000153
0.052360	-0.001747
0.052380	-0.002703
0.052400	-0.001428
0.052420	-0.001747
0.052440	-0.001109
0.052460	-0.001428
0.052480	-0.001747
0.052500	-0.001428
0.052520	-0.001428
0.052540	-0.000472
0.052560	-0.001747
0.052580	-0.002703
0.052600	-0.001428
0.052620	-0.001747
0.052640	-0.001747
0.052660	-0.001428
0.052680	-0.002703
0.052700	-0.002065
0.052720	-0.003977
0.052740	-0.002703
0.052760	-0.001747
0.052780	-0.003021
0.052800	-0.002384
0.052820	-0.001428
0.052840	-0.002384
0.052860	-0.002065
0.052880	-0.002703
0.052900	-0.000153
0.052920	-0.002065
0.052940	-0.002065
0.052960	-0.001747
0.052980	-0.003340
0.053000	-0.002384
0.053020	-0.001747
0.053040	-0.002065
0.053060	-0.002384
0.053080	-0.002384
0.053100	-0.001109
0.053120	-0.000791
0.053140	-0.001428
0.053160	-0.000472
0.053180	-0.000791
0.053200	-0.001109
0.053220	-0.000153
0.053240	-0.000153
0.053260	-0.000472
0.053280	-0.001428
0.053300	-0.000791
0.053320	-0.000791
0.053340	-0.003021
0.053360	-0.000472
0.053380	-0.000791
0.053400	-0.000153
0.053420	-0.000472
0.053440	-0.001109
0.053460	-0.000153
0.053480	-0.000153
0.053500	0.001121
0.053520	0.000484
0.053540	-0.001428
0.053560	-0.000153
0.053580	-0.000153
0.053600	-0.000472
0.053620	0.000484
0.053640	-0.000472
0.053660	-0.000791
0.053680	-0.001747
0.053700	-0.001747
0.053720	-0.000791
0.053740	-0.001747
0.053760	-0.000791
0.053780	-0.000153
0.053800	-0.001428
0.053820	-0.000472
0.053840	-0.001428
0.053860	-0.000153
0.053880	-0.001109
0.053900	-0.001747
0.053920	-0.002065
0.053940	-0.003021
0.053960	-0.003021
0.053980	-0.002065
0.054000	-0.002703
0.054020	-0.002703
0.054040	-0.003977
0.054060	-0.003659
0.054080	-0.002703
0.054100	-0.003340
0.054120	-0.002065
0.054140	-0.003659
0.054160	-0.003659
0.054180	-0.003340
0.054200	-0.003977
0.054220	-0.003021
0.054240	-0.004615
0.054260	-0.004933
0.054280	-0.004933
0.054300	-0.005252
0.054320	-0.004615
0.054340	-0.004933
0.054360	-0.004615
0.054380	-0.004296
0.054400	-0.004296
0.054420	-0.004933
0.054440	-0.004296
0.054460	-0.004296
0.054480	-0.003977
0.054500	-0.004615
0.054520	-0.004296
0.054540	-0.004296
0.054560	-0.003977
0.054580	-0.003659
0.054600	-0.004933
0.054620	-0.004933
0.054640	-0.005571
0.054660	-0.005252
0.054680	-0.003659
0.054700	-0.003977
0.054720	-0.003659
0.054740	-0.004296
0.054760	-0.004296
0.054780	-0.002703
0.054800	-0.004296
0.054820	-0.002703
0.054840	-0.003977
0.054860	-0.003977
0.054880	-0.003340
0.054900	-0.005252
0.054920	-0.004933
0.054940	-0.004296
0.054960	-0.003021
0.054980	-0.003659
0.055000	-0.003977
0.055020	-0.003977
0.055040	-0.003977
0.055060	-0.003021
0.055080	-0.002065
0.055100	-0.003340
0.055120	-0.003659
0.055140	-0.002703
0.055160	-0.002384
0.055180	-0.002703
0.055200	-0.004615
0.055220	-0.003659
0.055240	-0.003021
0.055260	-0.003340
0.055280	-0.002703
0.055300	-0.003977
0.055320	-0.002703
0.055340	-0.003021
0.055360	-0.002384
0.055380	-0.001428
0.055400	-0.002703
0.055420	-0.001428
0.055440	-0.000791
0.055460	-0.002703
0.055480	-0.001747
0.055500	-0.002703
0.055520	-0.003340
0.055540	-0.002384
0.055560	-0.001747
0.055580	-0.002065
0.055600	-0.003659
0.055620	-0.003340
0.055640	-0.001428
0.055660	-0.002065
0.055680	-0.001747
0.055700	-0.002065
0.055720	-0.002703
0.055740	-0.001428
0.055760	-0.002384
0.055780	-0.001428
0.055800	-0.002384
0.055820	-0.003340
0.055840	-0.001428
0.055860	-0.002703
0.055880	-0.003659
0.055900	-0.003021
0.055920	-0.003659
0.055940	-0.002703
0.055960	-0.002703
0.055980	-0.002384
0.056000	-0.002065
0.056020	-0.002065
0.056040	-0.000791
0.056060	-0.001747
0.056080	-0.003021
0.056100	-0.002065
0.056120	-0.002065
0.056140	-0.001428
0.056160	-0.002065
0.056180	-0.002703
0.056200	-0.002703
0.056220	-0.003977
0.056240	-0.001747
0.056260	-0.003021
0.056280	-0.002703
0.056300	-0.002384
0.056320	-0.001747
0.056340	-0.001428
0.056360	-0.001109
0.056380	-0.001109
0.056400	-0.001428
0.056420	-0.001747
0.056440	-0.001747
0.056460	-0.002384
0.056480	-0.002703
0.056500	-0.002065
0.056520	-0.001747
0.056540	-0.001109
0.056560	-0.002703
0.056580	-0.002384
0.056600	-0.000791
0.056620	-0.001428
0.056640	-0.000472
0.056660	-0.000791
0.056680	-0.002065
0.056700	-0.000153
0.056720	-0.001109
0.056740	0.000165
0.056760	-0.000791
0.056780	-0.001109
0.056800	-0.000472
0.056820	-0.001428
0.056840	-0.001109
0.056860	-0.000472
0.056880	-0.001428
0.056900	-0.001428
0.056920	-0.001747
0.056940	-0.001428
0.056960	-0.001109
0.056980	-0.000791
0.057000	0.000165
0.057020	-0.000472
0.057040	-0.001428
0.057060	-0.001747
0.057080	-0.001747
0.057100	-0.001747
0.057120	-0.002065
0.057140	-0.001747
0.057160	-0.003021
0.057180	-0.004296
0.057200	-0.002065
0.057220	-0.003021
0.057240	-0.002065
0.057260	-0.002384
0.057280	-0.002703
0.057300	-0.001747
0.057320	-0.002384
0.057340	-0.002384
0.057360	-0.003021
0.057380	-0.003659
0.057400	-0.002384
0.057420	-0.003659
0.057440	-0.004296
0.057460	-0.003659
0.057480	-0.004296
0.057500	-0.003659
0.057520	-0.004933
0.057540	-0.005252
0.057560	-0.004615
0.057580	-0.003977
0.057600	-0.003659
0.057620	-0.003659
0.057640	-0.004615
0.057660	-0.003340
0.057680	-0.003977
0.057700	-0.002384
0.057720	-0.004296
0.057740	-0.005571
0.057760	-0.004296
0.057780	-0.004933
0.057800	-0.004296
0.057820	-0.003977
0.057840	-0.004615
0.057860	-0.004615
0.057880	-0.004296
0.057900	-0.004933
0.057920	-0.003659
0.057940	-0.003659
0.057960	-0.002384
0.057980	-0.002065
0.058000	-0.003340
0.058020	-0.003977
0.058040	-0.004615
0.058060	-0.003340
0.058080	-0.004296
0.058100	-0.003659
0.058120	-0.004933
0.058140	-0.005571
0.058160	-0.003659
0.058180	-0.003340
0.058200	-0.002703
0.058220	-0.003340
0.058240	-0.003340
0.058260	-0.003340
0.058280	-0.003659
0.058300	-0.002384
0.058320	-0.003340
0.058340	-0.003977
0.058360	-0.003340
0.058380	-0.003659
0.058400	-0.004615
0.058420	-0.002703
0.058440	-0.004615
0.058460	-0.003340
0.058480	-0.003659
0.058500	-0.004296
0.058520	-0.003340
0.058540	-0.003977
0.058560	-0.002384
0.058580	-0.003340
0.058600	-0.003977
0.058620	-0.002703
0.058640	-0.004296
0.058660	-0.003340
0.058680	-0.003977
0.058700	-0.005571
0.058720	-0.004615
0.058740	-0.006208
0.058760	-0.004615
0.058780	-0.003977
0.058800	-0.005252
0.058820	-0.005252
0.058840	-0.005571
0.058860	-0.005571
0.058880	-0.005252
0.058900	-0.005889
0.058920	-0.004615
0.058940	-0.005252
0.058960	-0.006527
0.058980	-0.006527
0.059000	-0.007164
0.059020	-0.006846
0.059040	-0.007483
0.059060	-0.007164
0.059080	-0.007483
0.059100	-0.009076
0.059120	-0.007802
0.059140	-0.008120
0.059160	-0.007164
0.059180	-0.007483
0.059200	-0.007802
0.059220	-0.009395
0.059240	-0.009076
0.059260	-0.007483
0.059280	-0.008439
0.059300	-0.010032
0.059320	-0.009714
0.059340	-0.010032
0.059360	-0.011626
0.059380	-0.010670
0.059400	-0.010988
0.059420	-0.010670
0.059440	-0.011626
0.059460	-0.010988
0.059480	-0.010032
0.059500	-0.011626
0.059520	-0.010988
0.059540	-0.010670
0.059560	-0.012263
0.059580	-0.011626
0.059600	-0.012900
0.059620	-0.012582
0.059640	-0.012263
0.059660	-0.012900
0.059680	-0.012900
0.059700	-0.015131
0.059720	-0.014494
0.059740	-0.012900
0.059760	-0.012900
0.059780	-0.013219
0.059800	-0.013538
0.059820	-0.013219
0.059840	-0.012900
0.059860	-0.013219
0.059880	-0.012263
0.059900	-0.013856
0.059920	-0.014494
0.059940	-0.012900
0.059960	-0.014175
0.059980	-0.014175
0.060000	-0.014494
0.060020	-0.014494
0.060040	-0.014494
0.060060	-0.014494
0.060080	-0.012900
0.060100	-0.014175
0.060120	-0.013219
0.060140	-0.012263
0.060160	-0.013219
0.060180	-0.013538
0.060200	-0.013538
0.060220	-0.012582
0.060240	-0.012582
0.060260	-0.013538
0.060280	-0.012900
0.060300	-0.013219
0.060320	-0.014494
0.060340	-0.012263
0.060360	-0.014175
0.060380	-0.013538
0.060400	-0.013538
0.060420	-0.013219
0.060440	-0.012263
0.060460	-0.013538
0.060480	-0.012263
0.060500	-0.011626
0.060520	-0.012900
0.060540	-0.011944
0.060560	-0.013219
0.060580	-0.012263
0.060600	-0.012582
0.060620	-0.012900
0.060640	-0.012582
0.060660	-0.014175
0.060680	-0.014175
0.060700	-0.012263
0.060720	-0.013856
0.060740	-0.012263
0.060760	-0.012582
0.060780	-0.013856
0.060800	-0.012263
0.060820	-0.012263
0.060840	-0.011307
0.060860	-0.013219
0.060880	-0.013538
0.060900	-0.013219
0.060920	-0.013856
0.060940	-0.014175
0.060960	-0.013538
0.060980	-0.013856
0.061000	-0.014175
0.061020	-0.013856
0.061040	-0.013856
0.061060	-0.014175
0.061080	-0.013856
0.061100	-0.012582
0.061120	-0.013538
0.061140	-0.013219
0.061160	-0.014175
0.061180	-0.013538
0.061200	-0.013538
0.061220	-0.013856
0.061240	-0.014175
0.061260	-0.014175
0.061280	-0.016406
0.061300	-0.013538
0.061320	-0.015131
0.061340	-0.014812
0.061360	-0.015131
0.061380	-0.014494
0.061400	-0.013856
0.061420	-0.014175
0.061440	-0.013856
0.061460	-0.013856
0.061480	-0.015450
0.061500	-0.013538
0.061520	-0.014812
0.061540	-0.014812
0.061560	-0.014494
0.061580	-0.015450
0.061600	-0.014812
0.061620	-0.015131
0.061640	-0.016087
0.061660	-0.013856
0.061680	-0.014812
0.061700	-0.014175
0.061720	-0.014494
0.061740	-0.015131
0.061760	-0.014175
0.061780	-0.014175
0.061800	-0.012900
0.061820	-0.014812
0.061840	-0.014494
0.061860	-0.015131
0.061880	-0.015131
0.061900	-0.014494
0.061920	-0.014812
0.061940	-0.015450
0.061960	-0.015131
0.061980	-0.015450
0.062000	-0.014494
0.062020	-0.014175
0.062040	-0.014494
0.062060	-0.012582
0.062080	-0.012900
0.062100	-0.013856
0.062120	-0.014494
0.062140	-0.013856
0.062160	-0.015131
0.062180	-0.014175
0.062200	-0.014175
0.062220	-0.014812
0.062240	-0.016406
0.062260	-0.013538
0.062280	-0.014494
0.062300	-0.014494
0.062320	-0.015450
0.062340	-0.014494
0.062360	-0.013219
0.062380	-0.014175
0.062400	-0.013538
0.062420	-0.013219
0.062440	-0.014494
0.062460	-0.014175
0.062480	-0.014812
0.062500	-0.013538
0.062520	-0.013538
0.062540	-0.015131
0.062560	-0.014175
0.062580	-0.014175
0.062600	-0.014812
0.062620	-0.013219
0.062640	-0.013856
0.062660	-0.012900
0.062680	-0.012582
0.062700	-0.013219
0.062720	-0.013219
0.062740	-0.013219
0.062760	-0.011626
0.062780	-0.012582
0.062800	-0.013538
0.062820	-0.013538
0.062840	-0.013219
0.062860	-0.013219
0.062880	-0.012582
0.062900	-0.013538
0.062920	-0.013219
0.062940	-0.013538
0.062960	-0.012582
0.062980	-0.012582
0.063000	-0.012263
0.063020	-0.011307
0.063040	-0.011944
0.063060	-0.012263
0.063080	-0.012263
0.063100	-0.012582
0.063120	-0.011944
0.063140	-0.012582
0.063160	-0.012582
0.063180	-0.012263
0.063200	-0.014812
0.063220	-0.013538
0.063240	-0.012582
0.063260	-0.011944
0.063280	-0.012582
0.063300	-0.012582
0.063320	-0.012263
0.063340	-0.012582
0.063360	-0.011307
0.063380	-0.011626
0.063400	-0.012582
0.063420	-0.011944
0.063440	-0.011944
0.063460	-0.012263
0.063480	-0.012582
0.063500	-0.013219
0.063520	-0.012582
0.063540	-0.014175
0.063560	-0.014175
0.063580	-0.011944
0.063600	-0.014175
0.063620	-0.012582
0.063640	-0.011626
0.063660	-0.012582
0.063680	-0.012263
0.063700	-0.012582
0.063720	-0.011626
0.063740	-0.013219
0.063760	-0.013538
0.063780	-0.013856
0.063800	-0.015450
0.063820	-0.013856
0.063840	-0.012900
0.063860	-0.013538
0.063880	-0.013538
0.063900	-0.013538
0.063920	-0.013219
0.063940	-0.013538
0.063960	-0.012900
0.063980	-0.012900
0.064000	-0.013538
0.064020	-0.012900
0.064040	-0.012900
0.064060	-0.012900
0.064080	-0.013219
0.064100	-0.014494
0.064120	-0.013856
0.064140	-0.014175
0.064160	-0.015131
0.064180	-0.013856
0.064200	-0.013856
0.064220	-0.012582
0.064240	-0.013219
0.064260	-0.014175
0.064280	-0.013219
0.064300	-0.014494
0.064320	-0.012900
0.064340	-0.012900
0.064360	-0.014175
0.064380	-0.012582
0.064400	-0.013219
0.064420	-0.013856
0.064440	-0.012900
0.064460	-0.013856
0.064480	-0.013538
0.064500	-0.014175
0.064520	-0.013538
0.064540	-0.012582
0.064560	-0.013856
0.064580	-0.011626
0.064600	-0.011626
0.064620	-0.012582
0.064640	-0.011944
0.064660	-0.012900
0.064680	-0.011626
0.064700	-0.011944
0.064720	-0.012263
0.064740	-0.012582
0.064760	-0.012900
0.064780	-0.012263
0.064800	-0.011307
0.064820	-0.012582
0.064840	-0.011944
0.064860	-0.012582
0.064880	-0.011626
0.064900	-0.011626
0.064920	-0.010988
0.064940	-0.010670
0.064960	-0.010988
0.064980	-0.011626
0.065000	-0.010351
0.065020	-0.011626
0.065040	-0.011626
0.065060	-0.011944
0.065080	-0.011626
0.065100	-0.011626
0.065120	-0.012900
0.065140	-0.011626
0.065160	-0.011626
0.065180	-0.010988
0.065200	-0.011307
0.065220	-0.011626
0.065240	-0.010670
0.065260	-0.011307
0.065280	-0.010351
0.065300	-0.010032
0.065320	-0.012263
0.065340	-0.011626
0.065360	-0.012263
0.065380	-0.012263
0.065400	-0.010670
0.065420	-0.012582
0.065440	-0.011626
0.065460	-0.012900
0.065480	-0.013856
0.065500	-0.010988
0.065520	-0.011944
0.065540	-0.011307
0.065560	-0.011626
0.065580	-0.011944
0.065600	-0.010670
0.065620	-0.012582
0.065640	-0.010988
0.065660	-0.011307
0.065680	-0.012263
0.065700	-0.012263
0.065720	-0.013856
0.065740	-0.013538
0.065760	-0.011944
0.065780	-0.012582
0.065800	-0.011944
0.065820	-0.012582
0.065840	-0.012582
0.065860	-0.012263
0.065880	-0.011626
0.065900	-0.010670
0.065920	-0.012263
0.065940	-0.013219
0.065960	-0.012263
0.065980	-0.012582
0.066000	-0.012900
0.066020	-0.013219
0.066040	-0.013856
0.066060	-0.013219
0.066080	-0.013538
0.066100	-0.012582
0.066120	-0.012582
0.066140	-0.012900
0.066160	-0.012263
0.066180	-0.011944
0.066200	-0.012900
0.066220	-0.012582
0.066240	-0.012582
0.066260	-0.012263
0.066280	-0.012900
0.066300	-0.012263
0.066320	-0.012900
0.066340	-0.013538
0.066360	-0.012263
0.066380	-0.012582
0.066400	-0.012900
0.066420	-0.013856
0.066440	-0.013856
0.066460	-0.011307
0.066480	-0.011944
0.066500	-0.011944
0.066520	-0.011626
0.066540	-0.012263
0.066560	-0.011626
0.066580	-0.012263
0.066600	-0.011944
0.066620	-0.012263
0.066640	-0.011944
0.066660	-0.011944
0.066680	-0.013219
0.066700	-0.012582
0.066720	-0.012263
0.066740	-0.011944
0.066760	-0.011944
0.066780	-0.011626
0.066800	-0.011944
0.066820	-0.011626
0.066840	-0.011307
0.066860	-0.009714
0.066880	-0.011307
0.066900	-0.011944
0.066920	-0.011626
0.066940	-0.011626
0.066960	-0.010988
0.066980	-0.011944
0.067000	-0.011626
0.067020	-0.012263
0.067040	-0.012582
0.067060	-0.011307
0.067080	-0.011307
0.067100	-0.011626
0.067120	-0.010670
0.067140	-0.010988
0.067160	-0.011626
0.067180	-0.011944
0.067200	-0.011307
0.067220	-0.010670
0.067240	-0.011944
0.067260	-0.011626
0.067280	-0.011626
0.067300	-0.012263
0.067320	-0.012263
0.067340	-0.012263
0.067360	-0.011626
0.067380	-0.013538
0.067400	-0.012900
0.067420	-0.010988
0.067440	-0.011944
0.067460	-0.011626
0.067480	-0.011626
0.067500	-0.012263
0.067520	-0.011307
0.067540	-0.012263
0.067560	-0.011626
0.067580	-0.012900
0.067600	-0.012582
0.067620	-0.012263
0.067640	-0.013856
0.067660	-0.012582
0.067680	-0.011626
0.067700	-0.013219
0.067720	-0.012263
0.067740	-0.012582
0.067760	-0.012263
0.067780	-0.012263
0.067800	-0.011944
0.067820	-0.010032
0.067840	-0.011626
0.067860	-0.012263
0.067880	-0.011944
0.067900	-0.013219
0.067920	-0.012263
0.067940	-0.011944
0.067960	-0.013219
0.067980	-0.013219
0.068000	-0.012900
0.068020	-0.012263
0.068040	-0.012263
0.068060	-0.011626
0.068080	-0.011307
0.068100	-0.011307
0.068120	-0.011944
0.068140	-0.011626
0.068160	-0.012263
0.068180	-0.011944
0.068200	-0.012263
0.068220	-0.011626
0.068240	-0.012263
0.068260	-0.013856
0.068280	-0.011944
0.068300	-0.012263
0.068320	-0.012263
0.068340	-0.012582
0.068360	-0.012582
0.068380	-0.011626
0.068400	-0.011626
0.068420	-0.010032
0.068440	-0.010988
0.068460	-0.011944
0.068480	-0.010988
0.068500	-0.011626
0.068520	-0.011626
0.068540	-0.011626
0.068560	-0.012263
0.068580	-0.011626
0.068600	-0.012900
0.068620	-0.011944
0.068640	-0.011944
0.068660	-0.012263
0.068680	-0.011944
0.068700	-0.011307
0.068720	-0.011626
0.068740	-0.011307
0.068760	-0.011307
0.068780	-0.010032
0.068800	-0.010670
0.068820	-0.011944
0.068840	-0.011626
0.068860	-0.012582
0.068880	-0.010988
0.068900	-0.011307
0.068920	-0.011944
0.068940	-0.011944
0.068960	-0.012263
0.068980	-0.011626
0.069000	-0.011944
0.069020	-0.011944
0.069040	-0.010988
0.069060	-0.011626
0.069080	-0.011307
0.069100	-0.011307
0.069120	-0.011307
0.069140	-0.011944
0.069160	-0.011944
0.069180	-0.011944
0.069200	-0.012582
0.069220	-0.012582
0.069240	-0.011626
0.069260	-0.012582
0.069280	-0.011944
0.069300	-0.012900
0.069320	-0.013538
0.069340	-0.011626
0.069360	-0.012582
0.069380	-0.010988
0.069400	-0.011944
0.069420	-0.012900
0.069440	-0.011944
0.069460	-0.012900
0.069480	-0.012263
0.069500	-0.012263
0.069520	-0.013538
0.069540	-0.013219
0.069560	-0.013856
0.069580	-0.013856
0.069600	-0.012263
0.069620	-0.013538
0.069640	-0.012582
0.069660	-0.012263
0.069680	-0.012900
0.069700	-0.011626
0.069720	-0.012263
0.069740	-0.011307
0.069760	-0.011307
0.069780	-0.012582
0.069800	-0.012582
0.069820	-0.013538
0.069840	-0.012900
0.069860	-0.012263
0.069880	-0.012900
0.069900	-0.012900
0.069920	-0.012582
0.069940	-0.012263
0.069960	-0.012582
0.069980	-0.011944
0.070000	-0.011307
0.070020	-0.011944
0.070040	-0.012263
0.070060	-0.011626
0.070080	-0.010670
0.070100	-0.010988
0.070120	-0.012582
0.070140	-0.012582
0.070160	-0.012582
0.070180	-0.013538
0.070200	-0.011944
0.070220	-0.012582
0.070240	-0.011307
0.070260	-0.012900
0.070280	-0.012582
0.070300	-0.010988
0.070320	-0.012900
0.070340	-0.010988
0.070360	-0.011626
0.070380	-0.011307
0.070400	-0.010988
0.070420	-0.012263
0.070440	-0.010670
0.070460	-0.011626
0.070480	-0.012582
0.070500	-0.010988
0.070520	-0.013219
0.070540	-0.012263
0.070560	-0.011307
0.070580	-0.011307
0.070600	-0.011944
0.070620	-0.011307
0.070640	-0.011944
0.070660	-0.011307
0.070680	-0.010988
0.070700	-0.010032
0.070720	-0.010988
0.070740	-0.012263
0.070760	-0.010670
0.070780	-0.012900
0.070800	-0.012582
0.070820	-0.011307
0.070840	-0.011626
0.070860	-0.012900
0.070880	-0.012582
0.070900	-0.011307
0.070920	-0.011307
0.070940	-0.011626
0.070960	-0.009714
0.070980	-0.011307
0.071000	-0.011944
0.071020	-0.011626
0.071040	-0.010670
0.071060	-0.011307
0.071080	-0.011944
0.071100	-0.010988
0.071120	-0.011944
0.071140	-0.013538
0.071160	-0.011626
0.071180	-0.011944
0.071200	-0.011944
0.071220	-0.012263
0.071240	-0.011626
0.071260	-0.011626
0.071280	-0.011626
0.071300	-0.010988
0.071320	-0.010988
0.071340	-0.012263
0.071360	-0.011307
0.071380	-0.011944
0.071400	-0.012263
0.071420	-0.012263
0.071440	-0.012263
0.071460	-0.011944
0.071480	-0.013219
0.071500	-0.012582
0.071520	-0.011944
0.071540	-0.012263
0.071560	-0.011944
0.071580	-0.011626
0.071600	-0.012263
0.071620	-0.011944
0.071640	-0.011307
0.071660	-0.010032
0.071680	-0.011307
0.071700	-0.012582
0.071720	-0.011307
0.071740	-0.012263
0.071760	-0.012263
0.071780	-0.012582
0.071800	-0.012263
0.071820	-0.013538
0.071840	-0.013219
0.071860	-0.012263
0.071880	-0.012263
0.071900	-0.011944
0.071920	-0.011307
0.071940	-0.010988
0.071960	-0.012263
0.071980	-0.012263
0.072000	-0.010988
0.072020	-0.010988
0.072040	-0.011307
0.072060	-0.011944
0.072080	-0.012900
0.072100	-0.013856
0.072120	-0.011944
0.072140	-0.012900
0.072160	-0.012263
0.072180	-0.012582
0.072200	-0.012263
0.072220	-0.011626
0.072240	-0.012582
0.072260	-0.010670
0.072280	-0.011626
0.072300	-0.012263
0.072320	-0.011307
0.072340	-0.011626
0.072360	-0.012263
0.072380	-0.011626
0.072400	-0.012263
0.072420	-0.011626
0.072440	-0.012900
0.072460	-0.012263
0.072480	-0.011626
0.072500	-0.011626
0.072520	-0.010988
0.072540	-0.011626
0.072560	-0.011944
0.072580	-0.010988
0.072600	-0.010351
0.072620	-0.009395
0.072640	-0.010351
0.072660	-0.011626
0.072680	-0.011626
0.072700	-0.011626
0.072720	-0.011626
0.072740	-0.010670
0.072760	-0.011626
0.072780	-0.010988
0.072800	-0.011944
0.072820	-0.011307
0.072840	-0.011944
0.072860	-0.012263
0.072880	-0.010670
0.072900	-0.010351
0.072920	-0.010351
0.072940	-0.010670
0.072960	-0.010032
0.072980	-0.010670
0.073000	-0.010988
0.073020	-0.011307
0.073040	-0.012263
0.073060	-0.013538
0.073080	-0.010351
0.073100	-0.010988
0.073120	-0.010032
0.073140	-0.011626
0.073160	-0.012263
0.073180	-0.011307
0.073200	-0.011626
0.073220	-0.010351
0.073240	-0.010670
0.073260	-0.011307
0.073280	-0.010032
0.073300	-0.010670
0.073320	-0.011626
0.073340	-0.011944
0.073360	-0.012263
0.073380	-0.011626
0.073400	-0.012900
0.073420	-0.012263
0.073440	-0.010988
0.073460	-0.011626
0.073480	-0.011307
0.073500	-0.011307
0.073520	-0.011944
0.073540	-0.010670
0.073560	-0.010988
0.073580	-0.009395
0.073600	-0.010670
0.073620	-0.011626
0.073640	-0.011626
0.073660	-0.012263
0.073680	-0.011944
0.073700	-0.012582
0.073720	-0.012263
0.073740	-0.012900
0.073760	-0.012582
0.073780	-0.011944
0.073800	-0.011626
0.073820	-0.011944
0.073840	-0.010988
0.073860	-0.011307
0.073880	-0.011626
0.073900	-0.011944
0.073920	-0.011307
0.073940	-0.010670
0.073960	-0.011626
0.073980	-0.011626
0.074000	-0.012263
0.074020	-0.014494
0.074040	-0.012582
0.074060	-0.012263
0.074080	-0.012263
0.074100	-0.012582
0.074120	-0.012582
0.074140	-0.010988
0.074160	-0.011944
0.074180	-0.011626
0.074200	-0.011307
0.074220	-0.012900
0.074240	-0.010670
0.074260	-0.011626
0.074280	-0.011944
0.074300	-0.011944
0.074320	-0.012900
0.074340	-0.011944
0.074360	-0.013219
0.074380	-0.013219
0.074400	-0.011307
0.074420	-0.011944
0.074440	-0.010988
0.074460	-0.010670
0.074480	-0.012263
0.074500	-0.011626
0.074520	-0.010670
0.074540	-0.009714
0.074560	-0.010988
0.074580	-0.011626
0.074600	-0.010988
0.074620	-0.011944
0.074640	-0.012263
0.074660	-0.011626
0.074680	-0.011944
0.074700	-0.012263
0.074720	-0.011626
0.074740	-0.010670
0.074760	-0.010670
0.074780	-0.011307
0.074800	-0.010032
0.074820	-0.010351
0.074840	-0.011307
0.074860	-0.010988
0.074880	-0.010351
0.074900	-0.010351
0.074920	-0.011307
0.074940	-0.010351
0.074960	-0.011626
0.074980	-0.012900
0.075000	-0.010670
0.075020	-0.011944
0.075040	-0.011307
0.075060	-0.011307
0.075080	-0.011944
0.075100	-0.010032
0.075120	-0.010351
0.075140	-0.009714
0.075160	-0.009714
0.075180	-0.011944
0.075200	-0.010351
0.075220	-0.010670
0.075240	-0.011626
0.075260	-0.010351
0.075280	-0.011307
0.075300	-0.010670
0.075320	-0.011944
0.075340	-0.011626
0.075360	-0.010032
0.075380	-0.011307
0.075400	-0.010670
0.075420	-0.009714
0.075440	-0.010988
0.075460	-0.010988
0.075480	-0.010351
0.075500	-0.010351
0.075520	-0.010351
0.075540	-0.010988
0.075560	-0.010988
0.075580	-0.012263
0.075600	-0.011944
0.075620	-0.010670
0.075640	-0.012263
0.075660	-0.012582
0.075680	-0.011626
0.075700	-0.011626
0.075720	-0.010988
0.075740	-0.010988
0.075760	-0.010351
0.075780	-0.010988
0.075800	-0.011626
0.075820	-0.011626
0.075840	-0.011944
0.075860	-0.011307
0.075880	-0.011626
0.075900	-0.011944
0.075920	-0.012900
0.075940	-0.013219
0.075960	-0.011944
0.075980	-0.012263
0.076000	-0.012263
0.076020	-0.011626
0.076040	-0.011626
0.076060	-0.011626
0.076080	-0.011307
0.076100	-0.010351
0.076120	-0.010670
0.076140	-0.012263
0.076160	-0.011626
0.076180	-0.012582
0.076200	-0.012900
0.076220	-0.011307
0.076240	-0.012582
0.076260	-0.011944
0.076280	-0.012900
0.076300	-0.012900
0.076320	-0.011626
0.076340	-0.012263
0.076360	-0.010351
0.076380	-0.011307
0.076400	-0.011626
0.076420	-0.010351
0.076440	-0.010988
0.076460	-0.010988
0.076480	-0.011307
0.076500	-0.011944
0.076520	-0.011626
0.076540	-0.012582
0.076560	-0.011626
0.076580	-0.011307
0.076600	-0.011944
0.076620	-0.011307
0.076640	-0.011626
0.076660	-0.010988
0.076680	-0.010351
0.076700	-0.010670
0.076720	-0.009714
0.076740	-0.010032
0.076760	-0.010351
0.076780	-0.010988
0.076800	-0.010670
0.076820	-0.010670
0.076840	-0.011626
0.076860	-0.010351
0.076880	-0.010670
0.076900	-0.012263
0.076920	-0.010670
0.076940	-0.011307
0.076960	-0.010351
0.076980	-0.010351
0.077000	-0.009395
0.077020	-0.009395
0.077040	-0.010670
0.077060	-0.009395
0.077080	-0.010351
0.077100	-0.011307
0.077120	-0.010670
0.077140	-0.010988
0.077160	-0.011307
0.077180	-0.010351
0.077200	-0.011626
0.077220	-0.010351
0.077240	-0.011626
0.077260	-0.011626
0.077280	-0.010032
0.077300	-0.010988
0.077320	-0.010670
0.077340	-0.009395
0.077360	-0.010988
0.077380	-0.010032
0.077400	-0.010670
0.077420	-0.009395
0.077440	-0.010351
0.077460	-0.010988
0.077480	-0.010988
0.077500	-0.011944
0.077520	-0.012263
0.077540	-0.010988
0.077560	-0.011307
0.077580	-0.011626
0.077600	-0.011307
0.077620	-0.011307
0.077640	-0.010351
0.077660	-0.010670
0.077680	-0.009395
0.077700	-0.010670
0.077720	-0.011626
0.077740	-0.010988
0.077760	-0.010988
0.077780	-0.010988
0.077800	-0.011626
0.077820	-0.011944
0.077840	-0.011944
0.077860	-0.012900
0.077880	-0.010988
0.077900	-0.011307
0.077920	-0.010670
0.077940	-0.010670
0.077960	-0.010351
0.077980	-0.010988
0.078000	-0.011307
0.078020	-0.010988
0.078040	-0.010351
0.078060	-0.011944
0.078080	-0.010670
0.078100	-0.011626
0.078120	-0.013538
0.078140	-0.011307
0.078160	-0.011626
0.078180	-0.011626
0.078200	-0.011944
0.078220	-0.012263
0.078240	-0.010670
0.078260	-0.011944
0.078280	-0.010351
0.078300	-0.010670
0.078320	-0.011944
0.078340	-0.010670
0.078360	-0.010032
0.078380	-0.010351
0.078400	-0.011307
0.078420	-0.011626
0.078440	-0.011626
0.078460	-0.011944
0.078480	-0.011944
0.078500	-0.010670
0.078520	-0.011944
0.078540	-0.010351
0.078560	-0.010670
0.078580	-0.011307
0.078600	-0.010988
0.078620	-0.010670
0.078640	-0.009395
0.078660	-0.010988
0.078680	-0.010988
0.078700	-0.011307
0.078720	-0.010670
0.078740	-0.010351
0.078760	-0.011626
0.078780	-0.011626
0.078800	-0.012263
0.078820	-0.012263
0.078840	-0.010351
0.078860	-0.011307
0.078880	-0.011307
0.078900	-0.010351
0.078920	-0.010670
0.078940	-0.010670
0.078960	-0.010670
0.078980	-0.010351
0.079000	-0.010670
0.079020	-0.011307
0.079040	-0.010032
0.079060	-0.010988
0.079080	-0.012263
0.079100	-0.010351
0.079120	-0.011307
0.079140	-0.010988
0.079160	-0.011944
0.079180	-0.011944
0.079200	-0.010351
0.079220	-0.011626
0.079240	-0.010351
0.079260	-0.010670
0.079280	-0.011626
0.079300	-0.010351
0.079320	-0.010988
0.079340	-0.010351
0.079360	-0.010988
0.079380	-0.011307
0.079400	-0.011626
0.079420	-0.012263
0.079440	-0.011944
0.079460	-0.011626
0.079480	-0.012263
0.079500	-0.011626
0.079520	-0.010032
0.079540	-0.010988
0.079560	-0.010988
0.079580	-0.010670
0.079600	-0.010032
0.079620	-0.010988
0.079640	-0.011307
0.079660	-0.011307
0.079680	-0.011626
0.079700	-0.011307
0.079720	-0.011307
0.079740	-0.012263
0.079760	-0.011307
0.079780	-0.012263
0.079800	-0.011307
0.079820	-0.011307
0.079840	-0.010988
0.079860	-0.010670
0.079880	-0.011626
0.079900	-0.011307
0.079920	-0.010988
0.079940	-0.010351
0.079960	-0.010988
0.079980	-0.011626
0.080000	-0.011307
0.080020	-0.012582
0.080040	-0.012900
0.080060	-0.011626
0.080080	-0.012582
0.080100	-0.011307
0.080120	-0.012263
0.080140	-0.012582
0.080160	-0.011626
0.080180	-0.011307
0.080200	-0.010670
0.080220	-0.010670
0.080240	-0.011944
0.080260	-0.011307
0.080280	-0.011626
0.080300	-0.010988
0.080320	-0.011626
0.080340	-0.011626
0.080360	-0.011307
0.080380	-0.012900
0.080400	-0.012263
0.080420	-0.012263
0.080440	-0.011944
0.080460	-0.010670
0.080480	-0.010988
0.080500	-0.011944
0.080520	-0.010988
0.080540	-0.011307
0.080560	-0.009714
0.080580	-0.010988
0.080600	-0.011944
0.080620	-0.010670
0.080640	-0.011307
0.080660	-0.011307
0.080680	-0.010988
0.080700	-0.011944
0.080720	-0.012263
0.080740	-0.012263
0.080760	-0.011626
0.080780	-0.011307
0.080800	-0.010670
0.080820	-0.010032
0.080840	-0.010988
0.080860	-0.011626
0.080880	-0.010670
0.080900	-0.010670
0.080920	-0.010351
0.080940	-0.011626
0.080960	-0.011307
0.080980	-0.011626
0.081000	-0.012900
0.081020	-0.010988
0.081040	-0.011944
0.081060	-0.010988
0.081080	-0.011307
0.081100	-0.012263
0.081120	-0.011626
0.081140	-0.010988
0.081160	-0.010351
0.081180	-0.010670
0.081200	-0.011626
0.081220	-0.010988
0.081240	-0.011626
0.081260	-0.011307
0.081280	-0.011626
0.081300	-0.010988
0.081320	-0.011307
0.081340	-0.012900
0.081360	-0.011944
0.081380	-0.010670
0.081400	-0.011307
0.081420	-0.010988
0.081440	-0.010351
0.081460	-0.011626
0.081480	-0.010988
0.081500	-0.011626
0.081520	-0.010032
0.081540	-0.010351
0.081560	-0.011944
0.081580	-0.011307
0.081600	-0.012263
0.081620	-0.012263
0.081640	-0.011626
0.081660	-0.011944
0.081680	-0.012263
0.081700	-0.011944
0.081720	-0.011626
0.081740	-0.011626
0.081760	-0.010988
0.081780	-0.010351
0.081800	-0.010351
0.081820	-0.011626
0.081840	-0.011944
0.081860	-0.011307
0.081880	-0.010670
0.081900	-0.011944
0.081920	-0.011626
0.081940	-0.011944
0.081960	-0.013856
0.081980	-0.011626
0.082000	-0.011626
0.082020	-0.011626
0.082040	-0.011307
0.082060	-0.011626
0.082080	-0.011626
0.082100	-0.010988
0.082120	-0.010988
0.082140	-0.010032
0.082160	-0.011307
0.082180	-0.010351
0.082200	-0.011307
0.082220	-0.012263
0.082240	-0.010988
0.082260	-0.011944
0.082280	-0.011944
0.082300	-0.012900
0.082320	-0.012263
0.082340	-0.010988
0.082360	-0.011944
0.082380	-0.010351
0.082400	-0.010670
0.082420	-0.011307
0.082440	-0.010351
0.082460	-0.010988
0.082480	-0.010351
0.082500	-0.011626
0.082520	-0.011307
0.082540	-0.010670
0.082560	-0.011307
0.082580	-0.011626
0.082600	-0.010988
0.082620	-0.011626
0.082640	-0.010670
0.082660	-0.011307
0.082680	-0.010988
0.082700	-0.010351
0.082720	-0.010351
0.082740	-0.009395
0.082760	-0.010351
0.082780	-0.010351
0.082800	-0.010351
0.082820	-0.010988
0.082840	-0.010670
0.082860	-0.010988
0.082880	-0.010988
0.082900	-0.012263
0.082920	-0.012263
0.082940	-0.010670
0.082960	-0.011626
0.082980	-0.011626
0.083000	-0.010670
0.083020	-0.010988
0.083040	-0.010032
0.083060	-0.010670
0.083080	-0.010032
0.083100	-0.010351
0.083120	-0.011307
0.083140	-0.010670
0.083160	-0.011626
0.083180	-0.011944
0.083200	-0.010351
0.083220	-0.011626
0.083240	-0.011944
0.083260	-0.012900
0.083280	-0.011626
0.083300	-0.010670
0.083320	-0.011307
0.083340	-0.010032
0.083360	-0.010032
0.083380	-0.011944
0.083400	-0.010351
0.083420	-0.011626
0.083440	-0.010032
0.083460	-0.010988
0.083480	-0.010988
0.083500	-0.010670
0.083520	-0.011307
0.083540	-0.011307
0.083560	-0.011307
0.083580	-0.011626
0.083600	-0.011626
0.083620	-0.010988
0.083640	-0.010351
0.083660	-0.010670
0.083680	-0.009714
0.083700	-0.009714
0.083720	-0.011307
0.083740	-0.011307
0.083760	-0.010351
0.083780	-0.011626
0.083800	-0.010988
0.083820	-0.010351
0.083840	-0.011307
0.083860	-0.011944
0.083880	-0.011944
0.083900	-0.011307
0.083920	-0.011307
0.083940	-0.010670
0.083960	-0.010670
0.083980	-0.011626
0.084000	-0.010351
0.084020	-0.010988
0.084040	-0.010670
0.084060	-0.010032
0.084080	-0.010988
0.084100	-0.010032
0.084120	-0.011307
0.084140	-0.012263
0.084160	-0.010988
0.084180	-0.011944
0.084200	-0.010670
0.084220	-0.011944
0.084240	-0.011944
0.084260	-0.010351
0.084280	-0.010988
0.084300	-0.010351
0.084320	-0.010670
0.084340	-0.011307
0.084360	-0.010988
0.084380	-0.011307
0.084400	-0.010351
0.084420	-0.010988
0.084440	-0.011626
0.084460	-0.011626
0.084480	-0.011626
0.084500	-0.011307
0.084520	-0.010670
0.084540	-0.010670
0.084560	-0.010032
0.084580	-0.011307
0.084600	-0.011307
0.084620	-0.009714
0.084640	-0.010351
0.084660	-0.009714
0.084680	-0.009714
0.084700	-0.010988
0.084720	-0.010988
0.084740	-0.010988
0.084760	-0.010670
0.084780	-0.010988
0.084800	-0.011307
0.084820	-0.011307
0.084840	-0.010988
0.084860	-0.010988
0.084880	-0.010032
0.084900	-0.010351
0.084920	-0.010351
0.084940	-0.010351
0.084960	-0.010032
0.084980	-0.010351
0.085000	-0.009714
0.085020	-0.009076
0.085040	-0.010351
0.085060	-0.010032
0.085080	-0.010670
0.085100	-0.011626
0.085120	-0.010351
0.085140	-0.010670
0.085160	-0.010670
0.085180	-0.011944
0.085200	-0.010988
0.085220	-0.010032
0.085240	-0.010988
0.085260	-0.009714
0.085280	-0.009714
0.085300	-0.010988
0.085320	-0.010988
0.085340	-0.010670
0.085360	-0.010351
0.085380	-0.010351
0.085400	-0.011307
0.085420	-0.010351
0.085440	-0.011626
0.085460	-0.011626
0.085480	-0.010351
0.085500	-0.010988
0.085520	-0.011307
0.085540	-0.010988
0.085560	-0.010988
0.085580	-0.010670
0.085600	-0.010351
0.085620	-0.009076
0.085640	-0.010670
0.085660	-0.010988
0.085680	-0.010351
0.085700	-0.010988
0.085720	-0.010988
0.085740	-0.011307
0.085760	-0.010351
0.085780	-0.011626
0.085800	-0.012263
0.085820	-0.010988
0.085840	-0.011626
0.085860	-0.010988
0.085880	-0.010351
0.085900	-0.010351
0.085920	-0.010988
0.085940	-0.010988
0.085960	-0.010032
0.085980	-0.010988
0.086000	-0.011626
0.086020	-0.010351
0.086040	-0.011626
0.086060	-0.012582
0.086080	-0.010670
0.086100	-0.010988
0.086120	-0.011626
0.086140	-0.012900
0.086160	-0.013856
0.086180	-0.011626
0.086200	-0.011944
0.086220	-0.010351
0.086240	-0.009395
0.086260	-0.010988
0.086280	-0.009714
0.086300	-0.010032
0.086320	-0.010988
0.086340	-0.012263
0.086360	-0.012263
0.086380	-0.011626
0.086400	-0.011307
0.086420	-0.010988
0.086440	-0.010032
0.086460	-0.010988
0.086480	-0.011307
0.086500	-0.010670
0.086520	-0.011944
0.086540	-0.010988
0.086560	-0.010351
0.086580	-0.008758
0.086600	-0.010351
0.086620	-0.010032
0.086640	-0.010670
0.086660	-0.011307
0.086680	-0.010988
0.086700	-0.010988
0.086720	-0.010351
0.086740	-0.011307
0.086760	-0.010988
0.086780	-0.009714
0.086800	-0.011307
0.086820	-0.010351
0.086840	-0.010988
0.086860	-0.010988
0.086880	-0.010032
0.086900	-0.009714
0.086920	-0.009395
0.086940	-0.010032
0.086960	-0.010988
0.086980	-0.010351
0.087000	-0.010988
0.087020	-0.012263
0.087040	-0.010032
0.087060	-0.010670
0.087080	-0.010351
0.087100	-0.010988
0.087120	-0.011307
0.087140	-0.010670
0.087160	-0.010988
0.087180	-0.010032
0.087200	-0.009395
0.087220	-0.010351
0.087240	-0.009714
0.087260	-0.009714
0.087280	-0.010032
0.087300	-0.010988
0.087320	-0.011307
0.087340	-0.011626
0.087360	-0.011626
0.087380	-0.010670
0.087400	-0.010351
0.087420	-0.010988
0.087440	-0.010670
0.087460	-0.010670
0.087480	-0.011307
0.087500	-0.010988
0.087520	-0.010351
0.087540	-0.009076
0.087560	-0.010032
0.087580	-0.009714
0.087600	-0.010351
0.087620	-0.010988
0.087640	-0.010988
0.087660	-0.011626
0.087680	-0.011626
0.087700	-0.011626
0.087720	-0.012582
0.087740	-0.011307
0.087760	-0.010988
0.087780	-0.010351
0.087800	-0.011307
0.087820	-0.010351
0.087840	-0.010351
0.087860	-0.011626
0.087880	-0.010351
0.087900	-0.010032
0.087920	-0.011944
0.087940	-0.011626
0.087960	-0.011626
0.087980	-0.012900
0.088000	-0.011307
0.088020	-0.012263
0.088040	-0.010988
0.088060	-0.011626
0.088080	-0.012582
0.088100	-0.010988
0.088120	-0.011307
0.088140	-0.010988
0.088160	-0.010032
0.088180	-0.011307
0.088200	-0.010988
0.088220	-0.010988
0.088240	-0.010670
0.088260	-0.011307
0.088280	-0.011626
0.088300	-0.011307
0.088320	-0.011944
0.088340	-0.012263
0.088360	-0.011307
0.088380	-0.011307
0.088400	-0.011307
0.088420	-0.011307
0.088440	-0.010988
0.088460	-0.010670
0.088480	-0.010351
0.088500	-0.009714
0.088520	-0.010351
0.088540	-0.010670
0.088560	-0.010670
0.088580	-0.010670
0.088600	-0.010351
0.088620	-0.011307
0.088640	-0.010988
0.088660	-0.011307
0.088680	-0.012582
0.088700	-0.010032
0.088720	-0.010351
0.088740	-0.010670
0.088760	-0.010032
0.088780	-0.010670
0.088800	-0.010988
0.088820	-0.010351
0.088840	-0.009395
0.088860	-0.009714
0.088880	-0.011307
0.088900	-0.010351
0.088920	-0.010670
0.088940	-0.012263
0.088960	-0.010988
0.088980	-0.010988
0.089000	-0.011626
0.089020	-0.011944
0.089040	-0.011626
0.089060	-0.010351
0.089080	-0.010670
0.089100	-0.010351
0.089120	-0.010032
0.089140	-0.010032
0.089160	-0.009714
0.089180	-0.010670
0.089200	-0.009395
0.089220	-0.010351
0.089240	-0.011307
0.089260	-0.010351
0.089280	-0.011944
0.089300	-0.011307
0.089320	-0.010351
0.089340	-0.010988
0.089360	-0.010670
0.089380	-0.010670
0.089400	-0.010351
0.089420	-0.010351
0.089440	-0.010032
0.089460	-0.008758
0.089480	-0.010032
0.089500	-0.010988
0.089520	-0.009714
0.089540	-0.010351
0.089560	-0.010032
0.089580	-0.010988
0.089600	-0.010351
0.089620	-0.010670
0.089640	-0.012263
0.089660	-0.010032
0.089680	-0.011626
0.089700	-0.011307
0.089720	-0.009714
0.089740	-0.010988
0.089760	-0.010988
0.089780	-0.010670
0.089800	-0.010032
0.089820	-0.009714
0.089840	-0.011307
0.089860	-0.010351
0.089880	-0.011944
0.089900	-0.012263
0.089920	-0.010670
0.089940	-0.010670
0.089960	-0.011626
0.089980	-0.011626
0.090000	-0.011626
0.090020	-0.010032
0.090040	-0.011307
0.090060	-0.009714
0.090080	-0.010670
0.090100	-0.011626
0.090120	-0.010032
0.090140	-0.010351
0.090160	-0.010670
0.090180	-0.011307
0.090200	-0.010988
0.090220	-0.010988
0.090240	-0.011626
0.090260	-0.011626
0.090280	-0.010032
0.090300	-0.010988
0.090320	-0.010988
0.090340	-0.010988
0.090360	-0.011307
0.090380	-0.010670
0.090400	-0.009714
0.090420	-0.009395
0.090440	-0.010351
0.090460	-0.010988
0.090480	-0.010670
0.090500	-0.010988
0.090520	-0.010670
0.090540	-0.010670
0.090560	-0.011307
0.090580	-0.011307
0.090600	-0.011307
0.090620	-0.010351
0.090640	-0.010988
0.090660	-0.010032
0.090680	-0.010351
0.090700	-0.010351
0.090720	-0.010351
0.090740	-0.010670
0.090760	-0.009714
0.090780	-0.009395
0.090800	-0.010988
0.090820	-0.010351
0.090840	-0.011307
0.090860	-0.011626
0.090880	-0.010032
0.090900	-0.011307
0.090920	-0.010988
0.090940	-0.011626
0.090960	-0.011944
0.090980	-0.009714
0.091000	-0.010032
0.091020	-0.009714
0.091040	-0.010032
0.091060	-0.010988
0.091080	-0.010032
0.091100	-0.010032
0.091120	-0.010032
0.091140	-0.009714
0.091160	-0.010988
0.091180	-0.010351
0.091200	-0.011944
0.091220	-0.011626
0.091240	-0.010032
0.091260	-0.009714
0.091280	-0.010670
0.091300	-0.010032
0.091320	-0.010670
0.091340	-0.009714
0.091360	-0.010351
0.091380	-0.009076
0.091400	-0.009714
0.091420	-0.010032
0.091440	-0.010670
0.091460	-0.010351
0.091480	-0.010351
0.091500	-0.010351
0.091520	-0.010351
0.091540	-0.010351
0.091560	-0.011307
0.091580	-0.010351
0.091600	-0.010670
0.091620	-0.010670
0.091640	-0.010351
0.091660	-0.009714
0.091680	-0.009714
0.091700	-0.010670
0.091720	-0.009714
0.091740	-0.009714
0.091760	-0.010988
0.091780	-0.010670
0.091800	-0.010988
0.091820	-0.012263
0.091840	-0.010351
0.091860	-0.010988
0.091880	-0.011307
0.091900	-0.011626
0.091920	-0.011626
0.091940	-0.010032
0.091960	-0.010351
0.091980	-0.009714
0.092000	-0.009714
0.092020	-0.010988
0.092040	-0.009714
0.092060	-0.010032
0.092080	-0.009714
0.092100	-0.010351
0.092120	-0.011626
0.092140	-0.010351
0.092160	-0.011626
0.092180	-0.011307
0.092200	-0.010351
0.092220	-0.011307
0.092240	-0.010988
0.092260	-0.010032
0.092280	-0.010351
0.092300	-0.010351
0.092320	-0.010670
0.092340	-0.008120
0.092360	-0.010351
0.092380	-0.011626
0.092400	-0.010988
0.092420	-0.011307
0.092440	-0.010670
0.092460	-0.010670
0.092480	-0.010988
0.092500	-0.011307
0.092520	-0.011626
0.092540	-0.010351
0.092560	-0.010670
0.092580	-0.010988
0.092600	-0.009714
0.092620	-0.009714
0.092640	-0.010032
0.092660	-0.010351
0.092680	-0.009714
0.092700	-0.009714
0.092720	-0.010988
0.092740	-0.010670
0.092760	-0.010351
0.092780	-0.012263
0.092800	-0.010351
0.092820	-0.010351
0.092840	-0.010670
0.092860	-0.011307
0.092880	-0.010670
0.092900	-0.010351
0.092920	-0.010670
0.092940	-0.009395
0.092960	-0.010032
0.092980	-0.011626
0.093000	-0.010032
0.093020	-0.010670
0.093040	-0.010032
0.093060	-0.010351
0.093080	-0.010988
0.093100	-0.010032
0.093120	-0.010988
0.093140	-0.010988
0.093160	-0.009714
0.093180	-0.010670
0.093200	-0.010670
0.093220	-0.009714
0.093240	-0.010988
0.093260	-0.009395
0.093280	-0.010032
0.093300	-0.008758
0.093320	-0.009714
0.093340	-0.010670
0.093360	-0.009076
0.093380	-0.010670
0.093400	-0.010988
0.093420	-0.010988
0.093440	-0.010988
0.093460	-0.010988
0.093480	-0.011944
0.093500	-0.009076
0.093520	-0.010670
0.093540	-0.009714
0.093560	-0.010032
0.093580	-0.010670
0.093600	-0.009714
0.093620	-0.010351
0.093640	-0.009395
0.093660	-0.009714
0.093680	-0.010351
0.093700	-0.010032
0.093720	-0.010351
0.093740	-0.011626
0.093760	-0.009714
0.093780	-0.011307
0.093800	-0.009714
0.093820	-0.011307
0.093840	-0.011307
0.093860	-0.010351
0.093880	-0.010351
0.093900	-0.009076
0.093920	-0.009714
0.093940	-0.010670
0.093960	-0.009076
0.093980	-0.010670
0.094000	-0.009714
0.094020	-0.010351
0.094040	-0.010670
0.094060	-0.010351
0.094080	-0.011307
0.094100	-0.010670
0.094120	-0.010670
0.094140	-0.011626
0.094160	-0.010351
0.094180	-0.010988
0.094200	-0.010351
0.094220	-0.010032
0.094240	-0.010351
0.094260	-0.009076
0.094280	-0.009395
0.094300	-0.010351
0.094320	-0.010032
0.094340	-0.010351
0.094360	-0.010351
0.094380	-0.010351
0.094400	-0.010988
0.094420	-0.010670
0.094440	-0.011626
0.094460	-0.009714
0.094480	-0.010988
0.094500	-0.010032
0.094520	-0.010351
0.094540	-0.010351
0.094560	-0.010032
0.094580	-0.010351
0.094600	-0.009714
0.094620	-0.009714
0.094640	-0.010988
0.094660	-0.010351
0.094680	-0.010988
0.094700	-0.011626
0.094720	-0.010032
0.094740	-0.010988
0.094760	-0.010351
0.094780	-0.010988
0.094800	-0.011307
0.094820	-0.010351
0.094840	-0.010351
0.094860	-0.009714
0.094880	-0.010032
0.094900	-0.010032
0.094920	-0.009714
0.094940	-0.010351
0.094960	-0.008758
0.094980	-0.010351
0.095000	-0.010670
0.095020	-0.010032
0.095040	-0.010670
0.095060	-0.010670
0.095080	-0.009714
0.095100	-0.010032
0.095120	-0.009714
0.095140	-0.009714
0.095160	-0.009714
0.095180	-0.010032
0.095200	-0.010032
0.095220	-0.008439
0.095240	-0.010032
0.095260	-0.010351
0.095280	-0.009395
0.095300	-0.010351
0.095320	-0.010670
0.095340	-0.010351
0.095360	-0.010351
0.095380	-0.010670
0.095400	-0.011626
0.095420	-0.009714
0.095440	-0.010351
0.095460	-0.009714
0.095480	-0.010032
0.095500	-0.010351
0.095520	-0.009714
0.095540	-0.009714
0.095560	-0.009076
0.095580	-0.009076
0.095600	-0.010988
0.095620	-0.010351
0.095640	-0.010351
0.095660	-0.011307
0.095680	-0.010670
0.095700	-0.010670
0.095720	-0.010351
0.095740	-0.011626
0.095760	-0.011307
0.095780	-0.009714
0.095800	-0.010670
0.095820	-0.009714
0.095840	-0.009395
0.095860	-0.010032
0.095880	-0.010032
0.095900	-0.010351
0.095920	-0.010032
0.095940	-0.010351
0.095960	-0.010351
0.095980	-0.010032
0.096000	-0.011307
0.096020	-0.011307
0.096040	-0.010032
0.096060	-0.010988
0.096080	-0.010988
0.096100	-0.010351
0.096120	-0.010670
0.096140	-0.010032
0.096160	-0.009714
0.096180	-0.008439
0.096200	-0.010670
0.096220	-0.011307
0.096240	-0.010351
0.096260	-0.010988
0.096280	-0.010670
0.096300	-0.010351
0.096320	-0.010351
0.096340	-0.010670
0.096360	-0.010988
0.096380	-0.010032
0.096400	-0.010670
0.096420	-0.010670
0.096440	-0.009395
0.096460	-0.010032
0.096480	-0.010351
0.096500	-0.010351
0.096520	-0.009714
0.096540	-0.009714
0.096560	-0.010670
0.096580	-0.010032
0.096600	-0.010351
0.096620	-0.011944
0.096640	-0.010032
0.096660	-0.010670
0.096680	-0.010670
0.096700	-0.011944
0.096720	-0.010351
0.096740	-0.010032
0.096760	-0.010670
0.096780	-0.009714
0.096800	-0.009076
0.096820	-0.011307
0.096840	-0.009714
0.096860	-0.010032
0.096880	-0.010032
0.096900	-0.010988
0.096920	-0.010351
0.096940	-0.009714
0.096960	-0.011944
0.096980	-0.011626
0.097000	-0.009714
0.097020	-0.010988
0.097040	-0.010032
0.097060	-0.009714
0.097080	-0.010351
0.097100	-0.010032
0.097120	-0.010032
0.097140	-0.009076
0.097160	-0.010351
0.097180	-0.010032
0.097200	-0.010351
0.097220	-0.011944
0.097240	-0.010670
0.097260	-0.010988
0.097280	-0.010988
0.097300	-0.010351
0.097320	-0.010988
0.097340	-0.010351
0.097360	-0.010670
0.097380	-0.010988
0.097400	-0.009395
0.097420	-0.010988
0.097440	-0.010351
0.097460	-0.010351
0.097480	-0.009395
0.097500	-0.009714
0.097520	-0.010988
0.097540	-0.010670
0.097560	-0.011626
0.097580	-0.012582
0.097600	-0.010988
0.097620	-0.011626
0.097640	-0.010988
0.097660	-0.011626
0.097680	-0.012582
0.097700	-0.010670
0.097720	-0.010988
0.097740	-0.010670
0.097760	-0.010670
0.097780	-0.011307
0.097800	-0.010670
0.097820	-0.010988
0.097840	-0.010032
0.097860	-0.011307
0.097880	-0.011626
0.097900	-0.011626
0.097920	-0.011944
0.097940	-0.012263
0.097960	-0.010988
0.097980	-0.011626
0.098000	-0.010670
0.098020	-0.010988
0.098040	-0.011626
0.098060	-0.011626
0.098080	-0.011307
0.098100	-0.009395
0.098120	-0.011307
0.098140	-0.011626
0.098160	-0.011307
0.098180	-0.011626
0.098200	-0.011307
0.098220	-0.011626
0.098240	-0.011944
0.098260	-0.011307
0.098280	-0.012263
0.098300	-0.011626
0.098320	-0.010670
0.098340	-0.010670
0.098360	-0.010032
0.098380	-0.010670
0.098400	-0.010988
0.098420	-0.011944
0.098440	-0.010351
0.098460	-0.010351
0.098480	-0.011626
0.098500	-0.010670
0.098520	-0.011944
0.098540	-0.013219
0.098560	-0.011626
0.098580	-0.011944
0.098600	-0.011307
0.098620	-0.011944
0.098640	-0.012582
0.098660	-0.010351
0.098680	-0.010988
0.098700	-0.010032
0.098720	-0.010351
0.098740	-0.011307
0.098760	-0.010351
0.098780	-0.010988
0.098800	-0.010351
0.098820	-0.010988
0.098840	-0.011307
0.098860	-0.010988
0.098880	-0.012263
0.098900	-0.012263
0.098920	-0.010670
0.098940	-0.011307
0.098960	-0.010351
0.098980	-0.010670
0.099000	-0.010988
0.099020	-0.010351
0.099040	-0.010988
0.099060	-0.008758
0.099080	-0.010351
0.099100	-0.011307
0.099120	-0.010670
0.099140	-0.011626
0.099160	-0.011307
0.099180	-0.011626
0.099200	-0.010351
0.099220	-0.011307
0.099240	-0.011626
0.099260	-0.010670
0.099280	-0.010988
0.099300	-0.011307
0.099320	-0.010032
0.099340	-0.010351
0.099360	-0.010988
0.099380	-0.010988
0.099400	-0.010032
0.099420	-0.010032
0.099440	-0.011307
0.099460	-0.010988
0.099480	-0.011307
0.099500	-0.012582
0.099520	-0.010351
0.099540	-0.011626
0.099560	-0.010988
0.099580	-0.011626
0.099600	-0.010670
0.099620	-0.010351
0.099640	-0.010988
0.099660	-0.010670
0.099680	-0.010351
0.099700	-0.011626
0.099720	-0.010670
0.099740	-0.010670
0.099760	-0.011307
0.099780	-0.010988
0.099800	-0.011944
0.099820	-0.011307
0.099840	-0.012263
0.099860	-0.012582
0.099880	-0.010351
0.099900	-0.011626
0.099920	-0.010988
0.099940	-0.010988
0.099960	-0.011626
0.099980	-0.010670

